%OpenBCI Raw EXG Data
%Number of channels = 16
%Sample Rate = 125 Hz
%Board = OpenBCI_GUI$BoardCytonSerialDaisy
Sample Index, EXG Channel 0, EXG Channel 1, EXG Channel 2, EXG Channel 3, EXG Channel 4, EXG Channel 5, EXG Channel 6, EXG Channel 7, EXG Channel 8, EXG Channel 9, EXG Channel 10, EXG Channel 11, EXG Channel 12, EXG Channel 13, EXG Channel 14, EXG Channel 15, Accel Channel 0, Accel Channel 1, Accel Channel 2, Not Used, Digital Channel 0 (D11), Digital Channel 1 (D12), Digital Channel 2 (D13), Digital Channel 3 (D17), Not Used, Digital Channel 4 (D18), Analog Channel 0, Analog Channel 1, Analog Channel 2, Timestamp, Marker Channel, Timestamp (Formatted)
0.0, 8273.565265365276, 2618.6633251504095, 616.5952225441006, 12619.929029933099, 10353.462142164963, 10548.65992649316, 13774.620148494263, 13520.793738459795, 0.0, 0.0, 0.0, 0.0, 0.0, 0.0, 0.0, 0.0, 0.0, 0.0, 0.0, 192.0, 0.0, 0.0, 0.0, 0.0, 0.0, 0.0, 0.0, 0.0, 0.0, 1.744927764097394E9, 0.0, 2025-04-17 18:09:24.097
200.0, 8280.427250913055, 2627.492264210256, 622.2055104023827, 12630.188480638086, 10364.235682992421, 10558.89702545369, 13778.576407262852, 13527.745130985395, 13082.476029691225, 17345.445435696296, 15326.904097426428, 13147.385495589435, 15342.483263311777, 18890.800343847317, 14314.750053256757, 187500.0, 0.0, 0.0, 0.0, 192.0, 0.0, 0.0, 0.0, 0.0, 0.0, 0.0, 0.0, 0.0, 0.0, 1.744927764098645E9, 0.0, 2025-04-17 18:09:24.098
0.0, 4078.031072381863, 1324.4302659547648, 254.116982712386, 6302.610791040754, 5243.763952703947, 5257.934958688612, 6926.850310188569, 6764.3978314873975, 6540.098075878392, 8667.961796279169, 7664.815505124987, 6569.602378559396, 7666.961272592697, 9441.600375366257, 7155.531007710816, 93749.98882412778, 0.017, 0.016, 0.492, 192.0, 0.5, 8.0, 0.5, 0.0, 15.0, 96.0, 0.0, 0.0, 0.0, 1.744927764179197E9, 0.0, 2025-04-17 18:09:24.179
2.0, 8162.007708788838, 2646.2677295527137, 510.5808985925792, 12610.988332150977, 10488.220809486009, 10517.054559833356, 13858.774466368493, 13528.996828674894, 12919.576516100946, 17768.049868112786, 14802.152192849184, 13193.698310100832, 15257.747800081706, 18641.757207126288, 14451.565081067693, 187500.0, 0.017, 0.016, 0.492, 192.0, 0.0, 0.0, 0.0, 0.0, 0.0, 0.0, 0.0, 0.0, 0.0, 1.744927764188252E9, 0.0, 2025-04-17 18:09:24.188
4.0, 8166.098078024159, 2645.3289562855907, 515.3641719060149, 12617.78326246539, 10491.327701965298, 10523.1342343252, 13858.997983813046, 13531.187299631512, 12925.03034174804, 17775.269481571853, 14816.189088367117, 13199.576818892578, 15268.767210098173, 18644.88645135003, 14458.807046271211, 187500.0, 0.017, 0.016, 0.492, 192.0, 0.0, 0.0, 0.0, 0.0, 0.0, 0.0, 0.0, 0.0, 0.0, 1.744927764195309E9, 0.0, 2025-04-17 18:09:24.195
6.0, 8159.5490168987535, 2641.327994028091, 508.5692415916016, 12612.105919373742, 10483.50459140594, 10517.211022044543, 13854.25941398852, 13530.673209509041, 12921.387007401825, 17772.341403048205, 14799.581742236824, 13189.250312954226, 15255.937308780827, 18637.5997826576, 14450.7604182673, 187500.0, 0.017, 0.016, 0.492, 192.0, 0.0, 0.0, 0.0, 0.0, 0.0, 0.0, 0.0, 0.0, 0.0, 1.744927764203312E9, 0.0, 2025-04-17 18:09:24.203
8.0, 8166.925092569005, 2646.0442121081605, 515.5429858616574, 12621.940686934076, 10490.344225209265, 10525.414112259641, 13858.014507057012, 13532.841328721206, 12928.51721388307, 17774.487170515917, 14801.995730637997, 13193.698310100832, 15266.59909088601, 18636.97393381285, 14460.125799194075, 187500.0, 0.034, 0.03, 0.99, 192.0, 0.5, 8.0, 0.0, 120.0, 15.0, 120.0, 0.0, 0.0, 0.0, 1.74492776421136E9, 0.0, 2025-04-17 18:09:24.211
10.0, 8160.331327954689, 2639.8304271495854, 507.9210410023977, 12619.213774110529, 10489.114879264222, 10523.737731425492, 13852.337163965365, 13525.331142584222, 12923.331609169438, 17769.36862103565, 14801.772213193442, 13187.529228631167, 15255.914957036372, 18634.35877971158, 14448.167615910485, 187500.0, 0.034, 0.03, 0.99, 192.0, 0.0, 0.0, 0.0, 0.0, 0.0, 0.0, 0.0, 0.0, 0.0, 1.744927764220428E9, 0.0, 2025-04-17 18:09:24.220
12.0, 8172.088345538181, 2654.2473023232583, 520.4156661529144, 12632.334248105795, 10505.901039350158, 10536.165301342644, 13859.847350102347, 13528.706255996975, 12924.672713836755, 17782.287929330818, 14829.801300740399, 13200.247371226236, 15273.774000856163, 18645.378189728046, 14468.753572553824, 187500.0, 0.034, 0.03, 0.99, 192.0, 0.0, 0.0, 0.0, 0.0, 0.0, 0.0, 0.0, 0.0, 0.0, 1.744927764228469E9, 0.0, 2025-04-17 18:09:24.228
14.0, 8162.90177856705, 2649.0840493540823, 513.5760323495904, 12618.654980499146, 10499.106109035743, 10530.934993140101, 13852.65008838774, 13518.804433203273, 12916.737844555122, 17769.100400102187, 14823.967495437562, 13192.737185089254, 15263.156922239892, 18646.02639031725, 14454.090828191142, 187500.0, 0.034, 0.03, 0.99, 192.0, 0.0, 0.0, 0.0, 0.0, 0.0, 0.0, 0.0, 0.0, 0.0, 1.744927764236504E9, 0.0, 2025-04-17 18:09:24.236
16.0, 8172.982415316394, 2659.4999622702558, 521.8014743091434, 12625.762835235935, 10509.611428929738, 10537.484054265506, 13858.796818112949, 13525.688770495508, 12916.626085832846, 17774.889501916114, 14817.26197210097, 13191.351376933024, 15265.25798621869, 18648.239213018325, 14456.080133447664, 187500.0, 0.034, 0.03, 0.99, 192.0, 0.0, 0.0, 0.0, 0.0, 0.0, 0.0, 0.0, 0.0, 0.0, 1.744927764243528E9, 0.0, 2025-04-17 18:09:24.243
18.0, 8162.678261122497, 2649.106401098538, 511.4526166263362, 12611.413015295628, 10495.283960733886, 10523.961248870046, 13852.895957576748, 13522.648933249586, 12913.966228242663, 17764.69710644449, 14810.824669697842, 13185.495219885734, 15263.380439684444, 18639.231460002837, 14454.023772957777, 187500.0, 0.03, 0.028, 0.988, 192.0, 0.0, 120.0, 0.0, 112.0, 15.0, 112.0, 0.0, 0.0, 0.0, 1.744927764251554E9, 0.0, 2025-04-17 18:09:24.251
20.0, 8170.724889126407, 2665.378471062001, 521.4885498867691, 12620.532527033392, 10510.617257430227, 10532.36550478524, 13856.874568089792, 13532.461349065465, 12917.274286422049, 17769.949766391488, 14815.563239522367, 13191.329025188568, 15260.988803027727, 18642.695980393408, 14455.00724971381, 187500.0, 0.03, 0.028, 0.988, 192.0, 0.0, 0.0, 0.0, 0.0, 0.0, 0.0, 0.0, 0.0, 0.0, 1.744927764259555E9, 0.0, 2025-04-17 18:09:24.259
22.0, 8158.1408569980695, 2652.5709214891103, 510.29032591466023, 12612.35178856275, 10500.022530558412, 10526.308182037852, 13849.945527308648, 13525.442901306498, 12916.357864899383, 17760.60673720917, 14819.273629101948, 13184.064708240594, 15264.810951329584, 18632.660047132977, 14459.589357327148, 187500.0, 0.03, 0.028, 0.988, 192.0, 0.0, 0.0, 0.0, 0.0, 0.0, 0.0, 0.0, 0.0, 0.0, 1.744927764267652E9, 0.0, 2025-04-17 18:09:24.267
24.0, 8166.768630357818, 2660.0811076260934, 519.4098376524255, 12621.136024133686, 10508.180917284599, 10531.426731518119, 13859.690887891162, 13533.4448258215, 12918.637742833824, 17765.814693667257, 14810.869373186753, 13191.597246122034, 15265.950890296805, 18636.25867799028, 14460.125799194075, 187500.0, 0.03, 0.028, 0.988, 192.0, 0.0, 0.0, 0.0, 0.0, 0.0, 0.0, 0.0, 0.0, 0.0, 1.74492776427565E9, 0.0, 2025-04-17 18:09:24.275
26.0, 8155.928034296994, 2645.9771568747947, 509.01627648070775, 12610.071910628309, 10493.674635133104, 10521.614315702238, 13851.107818020322, 13524.325314083733, 12920.492937623614, 17763.60187096618, 14813.104547632283, 13192.983054278262, 15267.940195553327, 18637.84565184661, 14460.95281373892, 187500.0, 0.03, 0.028, 0.988, 192.0, 0.0, 0.0, 0.0, 0.0, 0.0, 0.0, 0.0, 0.0, 0.0, 1.744927764283686E9, 0.0, 2025-04-17 18:09:24.283
28.0, 8165.941615812972, 2652.012127877728, 517.5993463515457, 12618.587925265781, 10501.631856159194, 10527.828100660814, 13855.533463422475, 13527.722779240941, 12919.397702145303, 17770.352097791685, 14811.450518542591, 13190.591417621545, 15263.223977473257, 18637.957410568884, 14452.19092991244, 187500.0, 0.028, 0.028, 0.986, 192.0, 0.0, 112.0, 0.0, 112.0, 15.0, 104.0, 0.0, 0.0, 0.0, 1.744927764290698E9, 0.0, 2025-04-17 18:09:24.290
30.0, 8160.04075527677, 2639.673964938398, 511.31850615960434, 12615.101053130753, 10492.64645488816, 10526.50934773795, 13849.54319590845, 13517.888011680605, 12920.291771923516, 17767.55812973477, 14813.328065076837, 13186.121068730483, 15261.704058850297, 18633.06237853317, 14451.967412467888, 187500.0, 0.028, 0.028, 0.986, 192.0, 0.0, 0.0, 0.0, 0.0, 0.0, 0.0, 0.0, 0.0, 0.0, 1.744927764299736E9, 0.0, 2025-04-17 18:09:24.299
32.0, 8168.579121658698, 2649.776953432197, 517.5322911181797, 12622.722997990013, 10496.245085745464, 10527.246955304976, 13856.65105064524, 13523.386540816611, 12918.682446322733, 17772.90019665959, 14801.481640515523, 13179.549655860623, 15253.500968635199, 18632.97297155535, 14444.568985053182, 187500.0, 0.028, 0.028, 0.986, 192.0, 0.0, 0.0, 0.0, 0.0, 0.0, 0.0, 0.0, 0.0, 0.0, 1.744927764308784E9, 0.0, 2025-04-17 18:09:24.308
34.0, 8160.04075527677, 2641.99854636175, 508.9492212473418, 12613.670541485613, 10485.449193173552, 10520.362618012741, 13851.398390698241, 13519.25146809238, 12921.565821357468, 17771.156760592075, 14803.113317860762, 13183.349452418024, 15255.043239002614, 18631.296590721202, 14447.407656599005, 187500.0, 0.028, 0.028, 0.986, 192.0, 0.0, 0.0, 0.0, 0.0, 0.0, 0.0, 0.0, 0.0, 0.0, 1.744927764315835E9, 0.0, 2025-04-17 18:09:24.315
36.0, 8162.141819255569, 2650.8498371660517, 513.2631079272161, 12615.033997897388, 10491.595922898761, 10520.787301157392, 13853.432399443675, 13525.711122239964, 12918.101300966895, 17768.80982742427, 14803.202724838582, 13182.969472762285, 15255.020887258159, 18633.73293086683, 14441.395037340528, 187500.0, 0.028, 0.028, 0.986, 192.0, 0.0, 0.0, 0.0, 0.0, 0.0, 0.0, 0.0, 0.0, 0.0, 1.744927764322862E9, 0.0, 2025-04-17 18:09:24.322
38.0, 8155.704516852441, 2646.2453778082586, 509.70918055882225, 12610.161317606131, 10488.109050763733, 10520.496728479473, 13848.582070896873, 13521.330180326722, 12919.531812612035, 17762.79720816579, 14805.92963766213, 13190.859638555008, 15268.588396142532, 18631.87773607704, 14461.109275950108, 187500.0, 0.03, 0.022, 0.982, 192.0, 0.0, 120.0, 0.0, 88.0, 15.0, 88.0, 0.0, 0.0, 0.0, 1.744927764330917E9, 0.0, 2025-04-17 18:09:24.330
40.0, 8162.611205889131, 2647.1170958420153, 513.8442532830541, 12614.229335096996, 10487.304387963342, 10519.60265870126, 13852.471274432097, 13520.43611054851, 12913.385082886825, 17759.019763352844, 14802.733338205022, 13181.494257628234, 15248.248308688202, 18628.055587775183, 14443.652563530513, 187500.0, 0.03, 0.022, 0.982, 192.0, 0.0, 0.0, 0.0, 0.0, 0.0, 0.0, 0.0, 0.0, 0.0, 1.744927764339934E9, 0.0, 2025-04-17 18:09:24.339
42.0, 8160.3760314436, 2646.2677295527137, 511.78789279316584, 12610.518945517415, 10487.080870518788, 10518.328609267308, 13855.332297722376, 13521.643104749097, 12918.03424573353, 17761.23258605392, 14815.6973499891, 13190.256141454714, 15262.531073395143, 18632.950619810894, 14459.052915460219, 187500.0, 0.03, 0.022, 0.982, 192.0, 0.0, 0.0, 0.0, 0.0, 0.0, 0.0, 0.0, 0.0, 0.0, 1.744927764346981E9, 0.0, 2025-04-17 18:09:24.346
44.0, 8160.688955865974, 2648.3687935315124, 511.6090788375234, 12607.680273971591, 10489.539562408872, 10516.629876688705, 13857.232196001078, 13524.638238506108, 12915.016760232063, 17756.672830185038, 14808.857716185776, 13181.918940772885, 15256.183177969835, 18630.558983154177, 14451.788598512245, 187500.0, 0.03, 0.022, 0.982, 192.0, 0.0, 0.0, 0.0, 0.0, 0.0, 0.0, 0.0, 0.0, 0.0, 1.744927764355004E9, 0.0, 2025-04-17 18:09:24.355
46.0, 8159.0796302651925, 2656.3036628131467, 509.8879945144647, 12607.501460015948, 10491.864143832225, 10518.306257522852, 13858.014507057012, 13529.86854670865, 12920.515289368068, 17757.388086007606, 14814.669169744155, 13196.291112457648, 15266.286166463635, 18636.303381479192, 14462.048049217232, 187500.0, 0.03, 0.022, 0.982, 192.0, 0.0, 0.0, 0.0, 0.0, 0.0, 0.0, 0.0, 0.0, 0.0, 1.744927764363159E9, 0.0, 2025-04-17 18:09:24.363
48.0, 8156.620938375108, 2656.974215146806, 505.93173574587536, 12606.54033500437, 10494.211077000033, 10516.719283666525, 13855.108780277824, 13530.181471131023, 12918.257763178082, 17758.908004630568, 14810.98113190903, 13193.698310100832, 15258.396000670911, 18635.074035534148, 14455.498988091826, 187500.0, 0.036000000000000004, 0.023, 0.982, 192.0, 0.5, 40.0, 0.0, 96.0, 15.0, 88.0, 0.0, 0.0, 0.0, 1.744927764372164E9, 0.0, 2025-04-17 18:09:24.372
50.0, 8160.666604121519, 2654.4708197678115, 510.02210498119655, 12613.178803107598, 10499.933123580591, 10524.408283759152, 13855.667573889206, 13531.477872309431, 12924.98563825913, 17762.506635487873, 14823.855736715286, 13199.867391570497, 15271.002384543704, 18638.11387278007, 14465.065534718697, 187500.0, 0.036000000000000004, 0.023, 0.982, 192.0, 0.0, 0.0, 0.0, 0.0, 0.0, 0.0, 0.0, 0.0, 0.0, 1.744927764380141E9, 0.0, 2025-04-17 18:09:24.380
52.0, 8157.783229086785, 2649.039345865172, 507.76457879121057, 12609.960151906032, 10495.328664222798, 10521.99429535798, 13848.537367407962, 13523.699465238986, 12919.800033545498, 17760.00324010888, 14806.019044639952, 13185.070536741083, 15256.764323325673, 18631.184831998926, 14451.363915367594, 187500.0, 0.036000000000000004, 0.023, 0.982, 192.0, 0.0, 0.0, 0.0, 0.0, 0.0, 0.0, 0.0, 0.0, 0.0, 1.744927764387158E9, 0.0, 2025-04-17 18:09:24.387
54.0, 8162.342984955667, 2648.5252557426998, 514.1348259609731, 12619.705512488546, 10501.564800925828, 10529.124501839222, 13847.576242396384, 13525.174680373035, 12921.387007401825, 17765.725286689438, 14807.918942918652, 13181.762478561697, 15252.20456745679, 18628.63673313102, 14449.53107232226, 187500.0, 0.036000000000000004, 0.023, 0.982, 192.0, 0.0, 0.0, 0.0, 0.0, 0.0, 0.0, 0.0, 0.0, 0.0, 1.744927764397211E9, 0.0, 2025-04-17 18:09:24.397
56.0, 8156.240958719369, 2645.0607353521273, 510.08916021456247, 12614.251686841451, 10495.17220201161, 10523.51421398094, 13842.79296908295, 13522.648933249586, 12915.821423032454, 17762.059600598765, 14798.486506758512, 13171.681841812355, 15249.678820333342, 18617.818488814653, 14444.14430190853, 187500.0, 0.036000000000000004, 0.023, 0.982, 192.0, 0.0, 0.0, 0.0, 0.0, 0.0, 0.0, 0.0, 0.0, 0.0, 1.744927764404231E9, 0.0, 2025-04-17 18:09:24.404
58.0, 8167.61799664712, 2652.1238866000044, 519.3427824190596, 12626.96982943652, 10510.505498707951, 10535.718266453538, 13849.498492419541, 13526.225212362435, 12917.676617822244, 17774.017783882355, 14811.629332498233, 13178.052088982116, 15259.558291382587, 18625.216916229358, 14454.493159591337, 187500.0, 0.037000000000000005, 0.0225, 0.98, 192.0, 0.5, 24.0, 0.0, 88.0, 15.0, 72.0, 0.0, 0.0, 0.0, 1.744927764411297E9, 0.0, 2025-04-17 18:09:24.411
60.0, 8160.3089762102345, 2646.223026063803, 510.5361951036686, 12617.358579320738, 10500.246048002964, 10527.492824493984, 13844.804626083927, 13518.983247158916, 12911.261667163571, 17773.637804226615, 14810.958780164574, 13170.899530756418, 15247.06366623207, 18625.06045401817, 14445.977144953866, 187500.0, 0.037000000000000005, 0.0225, 0.98, 192.0, 0.0, 0.0, 0.0, 0.0, 0.0, 0.0, 0.0, 0.0, 0.0, 1.744927764419298E9, 0.0, 2025-04-17 18:09:24.419
62.0, 8169.652005392552, 2654.8955029124622, 518.8063405521323, 12623.617067768226, 10502.03418755939, 10530.51030999545, 13851.97953605408, 13528.974476930438, 12914.07798696494, 17776.409420539072, 14812.45634704308, 13174.431106380356, 15250.148206966902, 18633.755282611284, 14450.626307800569, 187500.0, 0.037000000000000005, 0.0225, 0.98, 192.0, 0.0, 0.0, 0.0, 0.0, 0.0, 0.0, 0.0, 0.0, 0.0, 1.744927764427341E9, 0.0, 2025-04-17 18:09:24.427
64.0, 8157.783229086785, 2646.290081297169, 508.41277938041446, 12607.501460015948, 10496.781527612393, 10519.021513345422, 13847.486835418564, 13521.173718115535, 12912.669827064256, 17763.8924436441, 14809.729434219533, 13174.296995913624, 15249.54470986661, 18625.90982030747, 14453.66614504649, 187500.0, 0.037000000000000005, 0.0225, 0.98, 192.0, 0.0, 0.0, 0.0, 0.0, 0.0, 0.0, 0.0, 0.0, 0.0, 1.744927764434397E9, 0.0, 2025-04-17 18:09:24.434
66.0, 8167.886217580583, 2659.187037847881, 519.231023696783, 12617.895021187667, 10508.180917284599, 10530.0856268508, 13854.304117477432, 13529.555622286276, 12915.195574187706, 17765.412362267063, 14816.949047678596, 13180.331966916558, 15254.193872713313, 18633.799986100195, 14452.928537479465, 187500.0, 0.037000000000000005, 0.0225, 0.98, 192.0, 0.0, 0.0, 0.0, 0.0, 0.0, 0.0, 0.0, 0.0, 0.0, 1.744927764443439E9, 0.0, 2025-04-17 18:09:24.443
68.0, 8155.6151098746195, 2650.2463400657584, 508.5692415916016, 12607.523811760404, 10498.45790844654, 10522.687199436094, 13846.54806215144, 13526.336971084711, 12912.915696253265, 17754.102379572676, 14813.752748221488, 13175.593397092032, 15259.78180882714, 18626.513317407767, 14460.215206171895, 187500.0, 0.0345, 0.02325, 0.977, 192.0, 0.5, 0.0, 0.0, 96.0, 15.0, 56.0, 0.0, 0.0, 0.0, 1.744927764451458E9, 0.0, 2025-04-17 18:09:24.451
70.0, 8159.817237832218, 2660.461087281834, 514.0454189831519, 12610.11661411722, 10503.487050948985, 10521.27903953541, 13855.734629122571, 13533.757750243873, 12917.341341655416, 17761.32199303174, 14825.867393716264, 13185.115240229994, 15261.055858261092, 18633.91174482247, 14458.404714871016, 187500.0, 0.0345, 0.02325, 0.977, 192.0, 0.0, 0.0, 0.0, 0.0, 0.0, 0.0, 0.0, 0.0, 0.0, 1.744927764459451E9, 0.0, 2025-04-17 18:09:24.459
72.0, 8148.3954964155555, 2643.0937818400603, 501.2155176658056, 12595.833849410279, 10490.098356020255, 10511.041940574878, 13851.957184309626, 13524.593535017197, 12919.352998656394, 17748.067408569743, 14806.68959697361, 13188.378594920468, 15255.937308780827, 18628.323808708647, 14453.95671772441, 187500.0, 0.0345, 0.02325, 0.977, 192.0, 0.0, 0.0, 0.0, 0.0, 0.0, 0.0, 0.0, 0.0, 0.0, 1.744927764467533E9, 0.0, 2025-04-17 18:09:24.467
74.0, 8160.867769821617, 2656.281311068691, 512.1902241933614, 12610.20602109504, 10505.297542249864, 10523.089530836289, 13859.690887891162, 13528.125110641136, 12921.543469613012, 17760.494978486895, 14819.31833259086, 13190.65847285491, 15258.954794282294, 18640.036122803227, 14454.090828191142, 187500.0, 0.0345, 0.02325, 0.977, 192.0, 0.0, 0.0, 0.0, 0.0, 0.0, 0.0, 0.0, 0.0, 0.0, 1.744927764475572E9, 0.0, 2025-04-17 18:09:24.475
76.0, 8153.536397640276, 2646.290081297169, 505.90938400142005, 12604.014587880922, 10495.216905500522, 10518.79799590087, 13852.046591287446, 13521.19606985999, 12922.281077180038, 17761.143179076098, 14817.373730823247, 13194.100641501027, 15263.73806759573, 18641.891317593017, 14454.537863080248, 187500.0, 0.0345, 0.02325, 0.977, 192.0, 0.0, 0.0, 0.0, 0.0, 0.0, 0.0, 0.0, 0.0, 0.0, 1.744927764482616E9, 0.0, 2025-04-17 18:09:24.482
78.0, 8168.310900725234, 2654.4261162789007, 517.9569742628306, 12618.654980499146, 10507.59977192876, 10529.258612305954, 13859.802646613438, 13525.331142584222, 12919.241239934116, 17774.71068796047, 14818.580725023834, 13199.889743314952, 15266.330869952544, 18649.379151985544, 14458.158845682008, 187500.0, 0.035250000000000004, 0.026625, 0.9744999999999999, 192.0, 0.5, 16.0, 0.0, 120.0, 15.0, 48.0, 0.0, 0.0, 0.0, 1.744927764490599E9, 0.0, 2025-04-17 18:09:24.490
80.0, 8160.3089762102345, 2647.6311859644875, 512.8384247825652, 12612.441195540572, 10498.703777635548, 10526.375237271219, 13849.230271486078, 13522.336008827211, 12917.542507355512, 17775.738868205415, 14813.752748221488, 13198.66039736991, 15268.074306020058, 18645.981686828338, 14459.365839882594, 187500.0, 0.035250000000000004, 0.026625, 0.9744999999999999, 192.0, 0.0, 0.0, 0.0, 0.0, 0.0, 0.0, 0.0, 0.0, 0.0, 1.744927764499693E9, 0.0, 2025-04-17 18:09:24.499
82.0, 8169.160267014536, 2656.996566891261, 521.4438463978585, 12624.064102657332, 10507.197440528565, 10534.868900164236, 13849.78906509746, 13528.661552508063, 12911.50753635258, 17780.835065941224, 14818.580725023834, 13189.85381005452, 15261.815817572573, 18645.042913561218, 14458.628232315568, 187500.0, 0.035250000000000004, 0.026625, 0.9744999999999999, 192.0, 0.0, 0.0, 0.0, 0.0, 0.0, 0.0, 0.0, 0.0, 0.0, 1.744927764507743E9, 0.0, 2025-04-17 18:09:24.507
84.0, 8163.348813456156, 2643.6302237069876, 513.4642736273138, 12613.894058930167, 10497.452079946052, 10527.358714027252, 13848.716181363605, 13520.838441948707, 12912.334550897427, 17778.62224324015, 14823.229887870537, 13192.960702533806, 15268.186064742336, 18641.69015189292, 14460.461075360905, 187500.0, 0.035250000000000004, 0.026625, 0.9744999999999999, 192.0, 0.0, 0.0, 0.0, 0.0, 0.0, 0.0, 0.0, 0.0, 0.0, 1.744927764514742E9, 0.0, 2025-04-17 18:09:24.514
86.0, 8166.813333846729, 2644.3454795295575, 517.3534771625373, 12614.49755603046, 10496.625065401206, 10526.911679138146, 13852.02423954299, 13520.972552415438, 12908.60180957339, 17774.218949582453, 14805.303788817382, 13183.103583229016, 15254.909128535883, 18638.136224524525, 14449.285203133251, 187500.0, 0.035250000000000004, 0.026625, 0.9744999999999999, 192.0, 0.0, 0.0, 0.0, 0.0, 0.0, 0.0, 0.0, 0.0, 0.0, 1.744927764522791E9, 0.0, 2025-04-17 18:09:24.522
88.0, 8155.95038604145, 2643.496113240256, 516.5041108732356, 12606.763852448923, 10493.987559555479, 10526.88932739369, 13841.295402204443, 13516.032816890815, 12910.83698401892, 17761.679620943025, 14815.02679765544, 13176.442763381334, 15256.965489025772, 18626.78153834123, 14450.872176989578, 187500.0, 0.034625, 0.0273125, 0.97425, 192.0, 0.5, 8.0, 0.0, 112.0, 15.0, 56.0, 0.0, 0.0, 0.0, 1.744927764531881E9, 0.0, 2025-04-17 18:09:24.531
90.0, 8156.66564186402, 2646.066563852616, 518.7392853187663, 12609.088433872275, 10498.212039257533, 10529.057446605855, 13839.462559159108, 13516.546907013288, 12904.511440338068, 17746.927469602524, 14791.892742144197, 13148.950117701306, 15222.655561286874, 18610.040081744206, 14428.833356956644, 187500.0, 0.034625, 0.0273125, 0.97425, 192.0, 0.0, 0.0, 0.0, 0.0, 0.0, 0.0, 0.0, 0.0, 0.0, 1.744927764538868E9, 0.0, 2025-04-17 18:09:24.538
92.0, 8155.011612774327, 2645.7312876857864, 515.6770963283892, 12610.407186795139, 10498.860239846736, 10529.571536728328, 13839.954297537124, 13516.122223868637, 12911.328722396938, 17745.51930970184, 14809.26004758597, 13148.41367583438, 15232.937363736317, 18607.089651476104, 14433.728388992356, 187500.0, 0.034625, 0.0273125, 0.97425, 192.0, 0.0, 0.0, 0.0, 0.0, 0.0, 0.0, 0.0, 0.0, 0.0, 1.744927764546872E9, 0.0, 2025-04-17 18:09:24.546
94.0, 8153.402287173544, 2642.7585056732305, 513.7324945607776, 12606.473279771004, 10495.976864812, 10524.698856437071, 13842.1671202382, 13517.016293646848, 12909.6970450517, 17743.26178351185, 14792.138611333206, 13154.180425903849, 15218.542840307098, 18606.97789275383, 14422.66427548698, 187500.0, 0.034625, 0.0273125, 0.97425, 192.0, 0.0, 0.0, 0.0, 0.0, 0.0, 0.0, 0.0, 0.0, 0.0, 1.744927764556947E9, 0.0, 2025-04-17 18:09:24.556
96.0, 8149.490731893866, 2645.5971772190546, 515.1183027170066, 12603.075814613798, 10494.792222355869, 10525.436464004097, 13839.775483581483, 13519.542040770299, 12917.6989695667, 17743.820577123235, 14808.83536444132, 13169.804295278109, 15242.839186530018, 18613.884581790517, 14442.713790263391, 187500.0, 0.034625, 0.0273125, 0.97425, 192.0, 0.0, 0.0, 0.0, 0.0, 0.0, 0.0, 0.0, 0.0, 0.0, 1.744927764564995E9, 0.0, 2025-04-17 18:09:24.564
98.0, 8149.200159215947, 2636.723534670298, 512.5925555935569, 12600.862991912723, 10486.83500132978, 10520.98846685749, 13839.082579503367, 13514.468194778943, 12912.60277183089, 17739.864318354645, 14795.960759635063, 13168.910225499896, 15233.96554398126, 18612.856401545574, 14427.268734844773, 187500.0, 0.0343125, 0.02665625, 0.9761249999999999, 192.0, 0.5, 8.0, 0.0, 104.0, 15.0, 72.0, 0.0, 0.0, 0.0, 1.744927764571031E9, 0.0, 2025-04-17 18:09:24.571
100.0, 8157.515008153321, 2641.685621939376, 516.6158695955121, 12608.931971661088, 10493.36171071073, 10526.88932739369, 13845.497530162042, 13518.089177380703, 12918.324818411449, 17752.671867927536, 14804.141498105706, 13181.002519250218, 15255.087942491526, 18625.194564484904, 14444.8595577311, 187500.0, 0.0343125, 0.02665625, 0.9761249999999999, 192.0, 0.0, 0.0, 0.0, 0.0, 0.0, 0.0, 0.0, 0.0, 0.0, 1.744927764579148E9, 0.0, 2025-04-17 18:09:24.579
102.0, 8158.18556048698, 2637.036459092672, 513.5760323495904, 12611.100090873253, 10497.876763090702, 10529.169205328131, 13843.910556305715, 13514.557601756766, 12911.060501463475, 17756.717533673946, 14797.480678258024, 13173.715850557786, 15240.916936506861, 18624.524012151243, 14436.164729137985, 187500.0, 0.0343125, 0.02665625, 0.9761249999999999, 192.0, 0.0, 0.0, 0.0, 0.0, 0.0, 0.0, 0.0, 0.0, 0.0, 1.744927764587073E9, 0.0, 2025-04-17 18:09:24.587
104.0, 8168.668528636519, 2649.0169941207164, 521.5109016312244, 12619.750215977458, 10506.683350406092, 10537.484054265506, 13851.398390698241, 13519.877316937127, 12913.340379397916, 17774.08483911572, 14823.274591359448, 13188.982092020762, 15263.983936784738, 18638.73972162482, 14456.638927059046, 187500.0, 0.0343125, 0.02665625, 0.9761249999999999, 192.0, 0.0, 0.0, 0.0, 0.0, 0.0, 0.0, 0.0, 0.0, 0.0, 1.744927764595134E9, 0.0, 2025-04-17 18:09:24.595
106.0, 8164.399345445556, 2645.6642324524205, 515.4535788838361, 12613.558782763337, 10498.03322530189, 10530.17503382862, 13848.269146474498, 13515.876354679627, 12905.763138027567, 17775.51535076086, 14809.014178396963, 13185.048184996627, 15252.383381412434, 18636.97393381285, 14443.920784463977, 187500.0, 0.0343125, 0.02665625, 0.9761249999999999, 192.0, 0.0, 0.0, 0.0, 0.0, 0.0, 0.0, 0.0, 0.0, 0.0, 1.744927764603106E9, 0.0, 2025-04-17 18:09:24.603
108.0, 8175.642272906575, 2654.649633723454, 522.8743580429981, 12620.152547377653, 10506.392777728173, 10533.728961197015, 13857.053382045435, 13524.325314083733, 12909.428824118237, 17787.540589277814, 14828.393140839713, 13189.496182143233, 15263.73806759573, 18645.288782750224, 14454.29199389124, 187500.0, 0.0343125, 0.02665625, 0.9761249999999999, 192.0, 0.0, 0.0, 0.0, 0.0, 0.0, 0.0, 0.0, 0.0, 0.0, 1.744927764611193E9, 0.0, 2025-04-17 18:09:24.611
110.0, 8164.891083823572, 2648.480552253789, 510.8714712704982, 12607.25559082694, 10497.541486923872, 10523.715379681038, 13851.130169764778, 13522.559526271765, 12905.226696160638, 17784.724269476446, 14814.98209416653, 13190.345548432535, 15256.20552971429, 18644.193547271916, 14453.375572368572, 187500.0, 0.034, 0.024, 0.982, 192.0, 0.5, 8.0, 0.0, 96.0, 15.0, 88.0, 0.0, 0.0, 0.0, 1.744927764619259E9, 0.0, 2025-04-17 18:09:24.619
112.0, 8170.836647848684, 2657.3988982914566, 517.3981806514479, 12612.083567629286, 10502.056539303845, 10526.0846645933, 13860.02616405799, 13532.72956999893, 12909.406472373781, 17791.318034090764, 14831.477681574546, 13194.70413860132, 15266.956718797293, 18649.289745007725, 14463.679726562468, 187500.0, 0.034, 0.024, 0.982, 192.0, 0.0, 0.0, 0.0, 0.0, 0.0, 0.0, 0.0, 0.0, 0.0, 1.744927764628285E9, 0.0, 2025-04-17 18:09:24.628
114.0, 8158.677298864997, 2643.294947540158, 507.0493229686407, 12598.15843083363, 10486.723242607504, 10514.305295265352, 13853.901786077236, 13526.87341295164, 12910.635818318822, 17773.66015597107, 14808.589495252312, 13193.743013589743, 15264.609785629485, 18643.478291449344, 14461.042220716743, 187500.0, 0.034, 0.024, 0.982, 192.0, 0.0, 0.0, 0.0, 0.0, 0.0, 0.0, 0.0, 0.0, 0.0, 1.744927764636311E9, 0.0, 2025-04-17 18:09:24.636
116.0, 8168.310900725234, 2650.6263197214985, 519.879224285987, 12608.797861194356, 10498.390853213174, 10524.296525036874, 13857.679230890184, 13530.181471131023, 12912.759234042078, 17767.736943690416, 14811.472870287047, 13195.75467059072, 15258.26189020418, 18640.393750714513, 14454.493159591337, 187500.0, 0.034, 0.024, 0.982, 192.0, 0.0, 0.0, 0.0, 0.0, 0.0, 0.0, 0.0, 0.0, 0.0, 1.744927764644372E9, 0.0, 2025-04-17 18:09:24.644
118.0, 8153.536397640276, 2633.482531724278, 507.51870960220214, 12596.794974421857, 10487.1255740077, 10515.847565632768, 13849.856120330825, 13525.241735606402, 12913.07215846445, 17755.0411528398, 14814.155079621683, 13188.020967009184, 15253.344506424011, 18630.581334898634, 14454.537863080248, 187500.0, 0.034, 0.024, 0.982, 192.0, 0.0, 0.0, 0.0, 0.0, 0.0, 0.0, 0.0, 0.0, 0.0, 1.744927764652393E9, 0.0, 2025-04-17 18:09:24.652
120.0, 8158.073801764704, 2649.2405115652696, 516.0794277285847, 12604.439271025572, 10490.612446142728, 10519.826176145814, 13852.046591287446, 13534.070674666247, 12917.944838755708, 17755.0411528398, 14818.60307676829, 13191.664301355398, 15260.072381505059, 18630.760148854275, 14458.471770104381, 187500.0, 0.026000000000000002, 0.03, 0.984, 192.0, 0.0, 104.0, 0.0, 120.0, 15.0, 96.0, 0.0, 0.0, 0.0, 1.744927764658347E9, 0.0, 2025-04-17 18:09:24.658
122.0, 8144.4615893914215, 2634.510711969222, 506.7363985462664, 12594.671558698603, 10484.286902461876, 10514.417053987629, 13841.094236504345, 13520.413758804056, 12918.816556789465, 17743.731170145413, 14803.940332405607, 13186.612807108499, 15255.132645980437, 18622.422948172447, 14452.414447356994, 187500.0, 0.026000000000000002, 0.03, 0.984, 192.0, 0.0, 0.0, 0.0, 0.0, 0.0, 0.0, 0.0, 0.0, 0.0, 1.744927764667419E9, 0.0, 2025-04-17 18:09:24.667
124.0, 8154.117542996114, 2638.8916538824624, 517.1746632068948, 12603.612256480725, 10490.567742653817, 10520.429673246106, 13845.251660973032, 13519.385578559111, 12917.833080033432, 17745.9886963354, 14800.341701548303, 13179.08026922706, 15241.811006285074, 18619.2937039487, 14439.115159406087, 187500.0, 0.026000000000000002, 0.03, 0.984, 192.0, 0.0, 0.0, 0.0, 0.0, 0.0, 0.0, 0.0, 0.0, 0.0, 1.744927764675508E9, 0.0, 2025-04-17 18:09:24.675
126.0, 8149.647194105053, 2632.476703223789, 508.9268695028865, 12599.96892213451, 10481.090603004766, 10516.741635410981, 13841.585974882362, 13513.171793600535, 12916.939010255219, 17744.155853290064, 14806.711948718066, 13181.002519250218, 15253.098637235003, 18618.086709748117, 14450.112217678097, 187500.0, 0.026000000000000002, 0.03, 0.984, 192.0, 0.0, 0.0, 0.0, 0.0, 0.0, 0.0, 0.0, 0.0, 0.0, 1.74492776468253E9, 0.0, 2025-04-17 18:09:24.682
128.0, 8163.505275667343, 2650.00047087675, 518.3369539185708, 12613.40232055215, 10496.1780305121, 10525.905850637657, 13850.951355809137, 13524.951162928483, 12913.094510208906, 17759.064466841755, 14810.377634808736, 13183.349452418024, 15252.383381412434, 18627.385035441523, 14452.52620607927, 187500.0, 0.026000000000000002, 0.03, 0.984, 192.0, 0.0, 0.0, 0.0, 0.0, 0.0, 0.0, 0.0, 0.0, 0.0, 1.744927764690564E9, 0.0, 2025-04-17 18:09:24.690
130.0, 8161.694784366463, 2650.872188910507, 514.0677707276071, 12612.977637407499, 10497.541486923872, 10528.118673338733, 13845.497530162042, 13523.297133838789, 12909.674693307245, 17765.32295528924, 14822.671094259154, 13191.060804255105, 15259.78180882714, 18633.420006444456, 14461.221034672384, 187500.0, 0.034, 0.03, 0.98, 192.0, 0.5, 8.0, 0.0, 120.0, 15.0, 80.0, 0.0, 0.0, 0.0, 1.744927764699614E9, 0.0, 2025-04-17 18:09:24.699
132.0, 8169.316729225723, 2660.8857704264847, 520.3709626640037, 12620.174899122108, 10504.537582938383, 10533.013705374446, 13850.25845173102, 13531.656686265074, 12903.304446137483, 17776.36471705016, 14818.98305642403, 13184.310577429604, 15251.109331978481, 18632.436529688424, 14457.845921259634, 187500.0, 0.034, 0.03, 0.98, 192.0, 0.0, 0.0, 0.0, 0.0, 0.0, 0.0, 0.0, 0.0, 0.0, 1.744927764707649E9, 0.0, 2025-04-17 18:09:24.707
134.0, 8166.94744431346, 2645.8877498969737, 514.2912881721602, 12614.274038585907, 10494.479297933496, 10527.112844838244, 13848.626774385784, 13527.25339260738, 12907.84185026191, 17775.716516460958, 14824.705103004588, 13189.004443765218, 15261.905224550394, 18634.850518089595, 14462.942118995443, 187500.0, 0.034, 0.03, 0.98, 192.0, 0.0, 0.0, 0.0, 0.0, 0.0, 0.0, 0.0, 0.0, 0.0, 1.744927764714687E9, 0.0, 2025-04-17 18:09:24.714
136.0, 8170.680185637497, 2650.089877854571, 517.4875876292691, 12615.369274064216, 10489.092527519766, 10522.642495947182, 13850.213748242111, 13523.721816983441, 12904.55614382698, 17777.348193806196, 14808.678902230133, 13177.985033748751, 15245.275526675645, 18627.943829052907, 14448.391133355039, 187500.0, 0.034, 0.03, 0.98, 192.0, 0.0, 0.0, 0.0, 0.0, 0.0, 0.0, 0.0, 0.0, 0.0, 1.744927764724726E9, 0.0, 2025-04-17 18:09:24.724
138.0, 8166.388650702078, 2646.2453778082586, 516.5041108732356, 12613.335265318783, 10488.824306586303, 10523.044827347378, 13847.866815074303, 13521.82191870474, 12906.858373505876, 17770.687373958513, 14806.35432080678, 13177.94033025984, 15245.811968542574, 18621.618285372053, 14447.76528451029, 187500.0, 0.034, 0.03, 0.98, 192.0, 0.0, 0.0, 0.0, 0.0, 0.0, 0.0, 0.0, 0.0, 0.0, 1.744927764730769E9, 0.0, 2025-04-17 18:09:24.730
140.0, 8168.780287358795, 2641.7973806616524, 513.620735838501, 12613.916410674621, 10488.623140886206, 10522.217812802532, 13852.068943031902, 13524.638238506108, 12905.427861860737, 17767.8934059016, 14797.614788724755, 13167.949100488318, 15236.290125404612, 18618.198468470393, 14443.227880385863, 187500.0, 0.034, 0.03, 0.982, 192.0, 0.5, 8.0, 0.0, 120.0, 15.0, 88.0, 0.0, 0.0, 0.0, 1.744927764738788E9, 0.0, 2025-04-17 18:09:24.738
142.0, 8162.253577977846, 2637.7964184041525, 510.200918936839, 12606.674445471102, 10481.202361727042, 10517.479242978006, 13855.734629122571, 13527.275744351835, 12917.542507355512, 17767.93810939051, 14806.35432080678, 13184.80231580762, 15256.786675070129, 18627.899125563996, 14460.572834083181, 187500.0, 0.034, 0.03, 0.982, 192.0, 0.0, 0.0, 0.0, 0.0, 0.0, 0.0, 0.0, 0.0, 0.0, 1.74492776474686E9, 0.0, 2025-04-17 18:09:24.746
144.0, 8151.837665061673, 2632.0296683346833, 506.62463982398987, 12593.218695309008, 10470.473524388495, 10505.811632372337, 13853.499454677041, 13524.861755950662, 12919.107129467384, 17751.93426036051, 14788.316463031348, 13183.975301262773, 15246.750741809696, 18623.92051505095, 14450.358086867105, 187500.0, 0.034, 0.03, 0.982, 192.0, 0.0, 0.0, 0.0, 0.0, 0.0, 0.0, 0.0, 0.0, 0.0, 1.744927764754851E9, 0.0, 2025-04-17 18:09:24.754
146.0, 8146.85322604814, 2634.778932902686, 508.70335205833345, 12591.29644528585, 10469.087716232267, 10506.169260283621, 13849.945527308648, 13525.577011773232, 12924.672713836755, 17743.641763167594, 14798.6429689697, 13189.22796120977, 15256.20552971429, 18624.524012151243, 14456.370706125583, 187500.0, 0.034, 0.03, 0.982, 192.0, 0.0, 0.0, 0.0, 0.0, 0.0, 0.0, 0.0, 0.0, 0.0, 1.744927764761834E9, 0.0, 2025-04-17 18:09:24.761
148.0, 8143.634574846576, 2625.61471767601, 505.0823694565737, 12588.390718506662, 10468.081887731778, 10501.296579992364, 13848.626774385784, 13519.743206470395, 12920.582344601435, 17737.36092297565, 14787.198875808583, 13182.880065784462, 15246.72839006524, 18625.842765074107, 14448.927575221966, 187500.0, 0.034, 0.03, 0.982, 192.0, 0.0, 0.0, 0.0, 0.0, 0.0, 0.0, 0.0, 0.0, 0.0, 1.744927764770947E9, 0.0, 2025-04-17 18:09:24.770
150.0, 8152.284699950779, 2639.383392260479, 510.491491614758, 12597.823154666801, 10477.78254482538, 10508.583248684794, 13852.426570943186, 13526.53813678481, 12922.66105683578, 17743.418245723038, 14800.274646314938, 13187.596283864534, 15259.804160571595, 18635.990457056818, 14460.90811025001, 187500.0, 0.034, 0.032, 0.982, 192.0, 0.5, 8.0, 0.5, 0.0, 15.0, 88.0, 0.0, 0.0, 0.0, 1.744927764778967E9, 0.0, 2025-04-17 18:09:24.778
152.0, 8151.725906339397, 2639.8080754051302, 506.3787706349815, 12599.007797122931, 10478.900132048146, 10510.55020219686, 13850.705486620127, 13524.884107695116, 12917.877783522343, 17747.17333879153, 14797.972416636041, 13193.318330445092, 15262.329907695044, 18634.045855289205, 14464.931424251965, 187500.0, 0.034, 0.032, 0.982, 192.0, 0.0, 0.0, 0.0, 0.0, 0.0, 0.0, 0.0, 0.0, 0.0, 1.744927764788077E9, 0.0, 2025-04-17 18:09:24.788
154.0, 8163.125296011603, 2650.0228226212053, 516.392352150959, 12608.417881538617, 10488.310216463831, 10520.854356390759, 13856.159312267222, 13530.15911938657, 12917.31898991096, 17762.506635487873, 14816.680826745132, 13200.716757859798, 15267.73902985323, 18643.902974593995, 14473.335680167162, 187500.0, 0.034, 0.032, 0.982, 192.0, 0.0, 0.0, 0.0, 0.0, 0.0, 0.0, 0.0, 0.0, 0.0, 1.744927764794258E9, 0.0, 2025-04-17 18:09:24.794
156.0, 8158.386726187078, 2644.4348865073785, 508.1222067024955, 12600.214791323519, 10480.732975093482, 10512.27128651992, 13852.113646520811, 13526.761654229362, 12911.284018908027, 17767.044039612298, 14808.276570829938, 13196.581685135567, 15259.938271038327, 18647.568660684665, 14464.8643690186, 187500.0, 0.034, 0.032, 0.982, 192.0, 0.0, 0.0, 0.0, 0.0, 0.0, 0.0, 0.0, 0.0, 0.0, 1.744927764804115E9, 0.0, 2025-04-17 18:09:24.804
158.0, 8167.863865836128, 2659.4776105258, 517.3087736736267, 12608.194364094063, 10492.959379310534, 10518.239202289487, 13858.372134968298, 13534.718875255452, 12913.630952075835, 17778.71165021797, 14820.950009936096, 13200.627350881978, 15269.16954149837, 18651.39080898652, 14476.95666276892, 187500.0, 0.034, 0.032, 0.982, 192.0, 0.0, 0.0, 0.0, 0.0, 0.0, 0.0, 0.0, 0.0, 0.0, 1.744927764813172E9, 0.0, 2025-04-17 18:09:24.813
160.0, 8160.353679699145, 2646.4688952528113, 510.200918936839, 12600.68417795708, 10487.863181574725, 10514.46175747654, 13852.493626176552, 13526.493433295898, 12910.769928785556, 17770.955594891977, 14807.226038840538, 13190.725528088276, 15257.904262292894, 18643.88062284954, 14464.774962040778, 187500.0, 0.036000000000000004, 0.036000000000000004, 0.98, 192.0, 0.5, 16.0, 0.5, 16.0, 15.0, 80.0, 0.0, 0.0, 0.0, 1.744927764820203E9, 0.0, 2025-04-17 18:09:24.820
162.0, 8174.390575217078, 2653.979081389795, 518.2698986852049, 12613.40232055215, 10496.870934590213, 10522.84366164728, 13861.993117570057, 13532.863680465662, 12915.307332909983, 17777.41524903956, 14807.494259774001, 13193.050109511627, 15256.451398903298, 18644.662933905474, 14465.199645185428, 187500.0, 0.036000000000000004, 0.036000000000000004, 0.98, 192.0, 0.0, 0.0, 0.0, 0.0, 0.0, 0.0, 0.0, 0.0, 0.0, 1.744927764827219E9, 0.0, 2025-04-17 18:09:24.827
164.0, 8165.986319301882, 2635.6953544253533, 505.19412817885024, 12605.243933825963, 10481.157658238133, 10513.545335953873, 13858.014507057012, 13530.002657175382, 12918.056597477986, 17772.22964432593, 14798.955893392074, 13189.5632373766, 15254.573852369054, 18640.48315769233, 14459.656412560513, 187500.0, 0.036000000000000004, 0.036000000000000004, 0.98, 192.0, 0.0, 0.0, 0.0, 0.0, 0.0, 0.0, 0.0, 0.0, 0.0, 1.744927764835218E9, 0.0, 2025-04-17 18:09:24.835
166.0, 8168.065031536225, 2647.1841510753816, 512.3913898934591, 12610.988332150977, 10485.426841429096, 10515.51228946594, 13860.562605924917, 13539.77036950235, 12924.024513247552, 17776.00708913888, 14807.047224884895, 13193.295978700637, 15259.893567549416, 18642.673628648954, 14464.43968587395, 187500.0, 0.036000000000000004, 0.036000000000000004, 0.98, 192.0, 0.0, 0.0, 0.0, 0.0, 0.0, 0.0, 0.0, 0.0, 0.0, 1.74492776484228E9, 0.0, 2025-04-17 18:09:24.842
168.0, 8147.747295826352, 2632.744924157253, 501.39433162144803, 12591.29644528585, 10469.512399376918, 10500.335454980786, 13848.090332518857, 13529.600325775185, 12924.158623714284, 17757.45514124097, 14796.49720150199, 13183.79648730713, 15248.06949473256, 18627.87677381954, 14452.973240968377, 187500.0, 0.036000000000000004, 0.036000000000000004, 0.98, 192.0, 0.0, 0.0, 0.0, 0.0, 0.0, 0.0, 0.0, 0.0, 0.0, 1.744927764850327E9, 0.0, 2025-04-17 18:09:24.850
170.0, 8155.302185452246, 2642.937319628873, 511.38556139297026, 12601.39943377965, 10481.470582660508, 10509.902001607657, 13855.421704700197, 13534.696523510996, 12926.572612115457, 17756.717533673946, 14796.854829413276, 13184.154115218416, 15251.44460814531, 18628.39086394201, 14455.00724971381, 187500.0, 0.036000000000000004, 0.034, 0.982, 192.0, 0.5, 16.0, 0.5, 0.0, 15.0, 96.0, 0.0, 0.0, 0.0, 1.744927764859388E9, 0.0, 2025-04-17 18:09:24.859
172.0, 8146.495598136855, 2635.80711314763, 504.52357584519103, 12596.34793953275, 10476.88847504717, 10508.069158562323, 13848.559719152418, 13527.29809609629, 12926.483205137636, 17749.90025161508, 14798.017120124952, 13186.389289663946, 15254.64090760242, 18629.888430820516, 14460.326964894173, 187500.0, 0.036000000000000004, 0.034, 0.982, 192.0, 0.0, 0.0, 0.0, 0.0, 0.0, 0.0, 0.0, 0.0, 0.0, 1.744927764867411E9, 0.0, 2025-04-17 18:09:24.867
174.0, 8158.632595376086, 2647.139447586471, 514.2242329387943, 12607.032073382386, 10486.991463540968, 10514.618219687727, 13857.656879145728, 13529.376808330633, 12922.973981258152, 17753.81180689476, 14801.794564937898, 13188.08802224255, 15251.757532567684, 18636.750416368297, 14458.114142193097, 187500.0, 0.036000000000000004, 0.034, 0.982, 192.0, 0.0, 0.0, 0.0, 0.0, 0.0, 0.0, 0.0, 0.0, 0.0, 1.744927764875451E9, 0.0, 2025-04-17 18:09:24.875
176.0, 8151.144760983559, 2640.098648083049, 505.26118341221616, 12598.538410489371, 10483.392832683663, 10511.51132720844, 13856.204015756133, 13524.213555361457, 12925.253859192593, 17751.75544640487, 14805.080271372828, 13193.743013589743, 15255.870253547462, 18636.996285557307, 14460.304613149718, 187500.0, 0.036000000000000004, 0.034, 0.982, 192.0, 0.0, 0.0, 0.0, 0.0, 0.0, 0.0, 0.0, 0.0, 0.0, 1.744927764884462E9, 0.0, 2025-04-17 18:09:24.884
178.0, 8159.99605178786, 2653.934377900884, 510.8044160371323, 12600.594770979258, 10486.656187374138, 10510.706664408048, 13864.429457715685, 13533.62363977714, 12923.264553936071, 17757.27632728533, 14806.242562084504, 13194.90530430142, 15254.909128535883, 18642.96420132687, 14462.450380617427, 187500.0, 0.036000000000000004, 0.034, 0.982, 192.0, 0.0, 0.0, 0.0, 0.0, 0.0, 0.0, 0.0, 0.0, 0.0, 1.744927764892524E9, 0.0, 2025-04-17 18:09:24.892
180.0, 8157.447952919955, 2644.5689969741106, 505.4176456234033, 12597.979616877989, 10482.230541971987, 10509.36555974073, 13861.590786169862, 13530.382636831122, 12925.902059781798, 17757.410437752063, 14813.909210432676, 13200.984978793262, 15276.858541590995, 18645.981686828338, 14478.878912792077, 187500.0, 0.034, 0.034, 0.983, 192.0, 0.5, 0.0, 0.5, 8.0, 15.0, 96.0, 0.0, 0.0, 0.0, 1.744927764900471E9, 0.0, 2025-04-17 18:09:24.900
182.0, 8164.779325101295, 2661.5339710156886, 509.5080148587245, 12603.54520124736, 10493.898152577658, 10514.260591776443, 13862.864835603814, 13537.892822968106, 12918.369521900358, 17767.401667523583, 14818.357207579282, 13186.501048386222, 15261.189968727824, 18649.893242108017, 14471.234616188362, 187500.0, 0.034, 0.034, 0.983, 192.0, 0.0, 0.0, 0.0, 0.0, 0.0, 0.0, 0.0, 0.0, 0.0, 1.744927764906597E9, 0.0, 2025-04-17 18:09:24.906
184.0, 8161.985357044382, 2656.9518634023507, 507.6304683244787, 12603.098166358253, 10498.569667168817, 10518.932106367602, 13860.249681502544, 13534.562413044265, 12922.102263224395, 17765.926452389533, 14826.850870472297, 13200.314426459603, 15272.723468866763, 18655.816454388674, 14477.761325569312, 187500.0, 0.034, 0.034, 0.983, 192.0, 0.0, 0.0, 0.0, 0.0, 0.0, 0.0, 0.0, 0.0, 0.0, 1.744927764914632E9, 0.0, 2025-04-17 18:09:24.914
186.0, 8165.919264068516, 2660.5728460041105, 509.8656427700094, 12605.288637314874, 10497.519135179416, 10518.038036589389, 13860.160274524722, 13534.607116533176, 12917.631914333335, 17760.629088953625, 14813.5962860103, 13188.42329840938, 15254.059762246581, 18649.334448496636, 14461.601014328126, 187500.0, 0.034, 0.034, 0.983, 192.0, 0.0, 0.0, 0.0, 0.0, 0.0, 0.0, 0.0, 0.0, 0.0, 1.744927764922671E9, 0.0, 2025-04-17 18:09:24.922
188.0, 8168.623825147609, 2651.4086307774346, 508.97157299179713, 12608.797861194356, 10496.736824123482, 10521.122577324222, 13861.926062336692, 13532.72956999893, 12922.817519046965, 17760.450274997984, 14814.870335444253, 13186.411641408402, 15263.514550151176, 18646.719294395363, 14467.144246953041, 187500.0, 0.034, 0.034, 0.983, 192.0, 0.0, 0.0, 0.0, 0.0, 0.0, 0.0, 0.0, 0.0, 0.0, 1.744927764930721E9, 0.0, 2025-04-17 18:09:24.930
190.0, 8167.059203035737, 2647.6311859644875, 506.490529357258, 12608.97667515, 10494.41224270013, 10520.854356390759, 13863.356573981831, 13535.38942758911, 12922.392835902314, 17760.114998831155, 14806.779003951431, 13187.328062931068, 15253.433913401834, 18644.707637394386, 14458.851749760122, 187500.0, 0.035, 0.035, 0.9824999999999999, 192.0, 0.5, 16.0, 0.5, 16.0, 15.0, 88.0, 0.0, 0.0, 0.0, 1.744927764938753E9, 0.0, 2025-04-17 18:09:24.938
192.0, 8164.041717534271, 2647.2959097976577, 505.21647992330554, 12609.557820505837, 10492.624103143706, 10522.955420369557, 13864.407105971231, 13538.786892746317, 12930.908850539787, 17764.004202366377, 14821.307637847382, 13193.966531034295, 15268.16371299788, 18647.83688161813, 14472.039278988754, 187500.0, 0.035, 0.035, 0.9824999999999999, 192.0, 0.0, 0.0, 0.0, 0.0, 0.0, 0.0, 0.0, 0.0, 0.0, 1.744927764946755E9, 0.0, 2025-04-17 18:09:24.946
194.0, 8161.761839599829, 2639.4504474938453, 501.9978287217413, 12606.786204193379, 10486.477373418496, 10517.099263322267, 13863.691850148662, 13533.355418843677, 12926.7514260711, 17763.266594799352, 14810.020006897452, 13185.182295463359, 15253.433913401834, 18643.813567616173, 14462.38332538406, 187500.0, 0.035, 0.035, 0.9824999999999999, 192.0, 0.0, 0.0, 0.0, 0.0, 0.0, 0.0, 0.0, 0.0, 0.0, 1.744927764955786E9, 0.0, 2025-04-17 18:09:24.955
196.0, 8167.908569325039, 2643.0267266066944, 507.25048866873846, 12614.0281693969, 10488.310216463831, 10522.262516291443, 13866.731687394582, 13535.165910144558, 12930.998257517607, 17770.977946636434, 14820.972361680551, 13194.480621156767, 15270.644756632419, 18651.994306086817, 14473.648604589536, 187500.0, 0.035, 0.035, 0.9824999999999999, 192.0, 0.0, 0.0, 0.0, 0.0, 0.0, 0.0, 0.0, 0.0, 0.0, 1.744927764963904E9, 0.0, 2025-04-17 18:09:24.963
198.0, 8165.76280185733, 2642.557339973133, 503.2048229223279, 12611.949457162555, 10492.110013021233, 10520.295562779374, 13864.295347248953, 13529.309753097266, 12923.443367891714, 17774.196597837996, 14811.986960409518, 13191.820763566586, 15264.855654818495, 18653.02248633176, 14467.278357419773, 187500.0, 0.035, 0.035, 0.9824999999999999, 192.0, 0.0, 0.0, 0.0, 0.0, 0.0, 0.0, 0.0, 0.0, 0.0, 1.744927764971859E9, 0.0, 2025-04-17 18:09:24.971
200.0, 8173.47415369441, 2648.9946423762613, 511.4526166263362, 12619.459643299539, 10498.346149724264, 10526.911679138146, 13869.615062429317, 13532.617811276652, 12925.298562681504, 17781.595025252704, 14824.481585560035, 13202.191972993849, 15275.808009601595, 18662.94666086992, 14474.319156923195, 187500.0, 0.037500000000000006, 0.036500000000000005, 0.98325, 192.0, 0.5, 32.0, 0.5, 24.0, 15.0, 96.0, 0.0, 0.0, 0.0, 1.744927764979948E9, 0.0, 2025-04-17 18:09:24.979
202.0, 8170.210799003935, 2642.9820231177837, 503.16011943341726, 12613.357617063239, 10487.84082983027, 10519.401493001164, 13867.581053683884, 13528.594497274697, 12919.777681801044, 17778.71165021797, 14816.926695934142, 13199.912095059408, 15263.514550151176, 18665.628870204553, 14468.977089998376, 187500.0, 0.037500000000000006, 0.036500000000000005, 0.98325, 192.0, 0.0, 0.0, 0.0, 0.0, 0.0, 0.0, 0.0, 0.0, 0.0, 1.744927764985928E9, 0.0, 2025-04-17 18:09:24.985
204.0, 8176.178714773502, 2656.3483663020575, 511.38556139297026, 12615.928067675599, 10494.211077000033, 10521.100225579767, 13872.923120608702, 13538.58572704622, 12924.806824303489, 17787.831161955735, 14826.247373372003, 13208.986903308261, 15275.785657857139, 18677.095315110128, 14480.24236920385, 187500.0, 0.037500000000000006, 0.036500000000000005, 0.98325, 192.0, 0.0, 0.0, 0.0, 0.0, 0.0, 0.0, 0.0, 0.0, 0.0, 1.744927764994951E9, 0.0, 2025-04-17 18:09:24.994
206.0, 8161.337156455178, 2646.3124330416244, 502.17664267738377, 12597.197305822052, 10482.722280350004, 10507.9797515845, 13862.149579781244, 13529.689732753008, 12921.565821357468, 17772.69903095949, 14819.251277357493, 13203.063691027606, 15270.220073487768, 18666.12060858257, 14470.474656876882, 187500.0, 0.037500000000000006, 0.036500000000000005, 0.98325, 192.0, 0.0, 0.0, 0.0, 0.0, 0.0, 0.0, 0.0, 0.0, 0.0, 1.744927765003003E9, 0.0, 2025-04-17 18:09:25.003
208.0, 8161.963005299927, 2650.6933749548643, 510.9385265038641, 12595.409166265628, 10484.666882117615, 10506.772757383915, 13864.2729955045, 13536.149386900592, 12923.577478358446, 17764.250071555387, 14812.188126109617, 13198.258065969714, 15270.175369998859, 18657.805759645194, 14474.81089530121, 187500.0, 0.037500000000000006, 0.036500000000000005, 0.98325, 192.0, 0.0, 0.0, 0.0, 0.0, 0.0, 0.0, 0.0, 0.0, 0.0, 1.744927765010067E9, 0.0, 2025-04-17 18:09:25.010
210.0, 8145.132141725081, 2641.3056422836357, 498.7568257757218, 12576.38783173416, 10467.545445864851, 10490.74655660946, 13854.751152366538, 13533.422474077044, 12922.012856246574, 17746.592193435692, 14798.35239629178, 13186.255179197215, 15259.245366960213, 18645.244079261312, 14462.740953295346, 187500.0, 0.037750000000000006, 0.038250000000000006, 0.980625, 192.0, 0.5, 24.0, 0.5, 32.0, 15.0, 72.0, 0.0, 0.0, 0.0, 1.744927765018148E9, 0.0, 2025-04-17 18:09:25.018
212.0, 8155.704516852441, 2651.319223799613, 508.8374625250653, 12588.9718638625, 10481.60469312724, 10500.804841614348, 13860.98728906957, 13539.591555546709, 12926.617315604368, 17745.36284749065, 14803.336835305314, 13189.809106565608, 15261.100561750003, 18641.958372826382, 14465.937252752454, 187500.0, 0.037750000000000006, 0.038250000000000006, 0.980625, 192.0, 0.0, 0.0, 0.0, 0.0, 0.0, 0.0, 0.0, 0.0, 0.0, 1.74492776502711E9, 0.0, 2025-04-17 18:09:25.027
214.0, 8145.154493469536, 2639.4504474938453, 500.38850312095923, 12580.545256202848, 10472.775754067392, 10497.340321223775, 13851.152521509233, 13532.327238598733, 12924.449196392203, 17735.32691423022, 14799.000596880986, 13178.65558608241, 15252.87511979045, 18634.15761401148, 14458.225900915373, 187500.0, 0.037750000000000006, 0.038250000000000006, 0.980625, 192.0, 0.0, 0.0, 0.0, 0.0, 0.0, 0.0, 0.0, 0.0, 0.0, 1.744927765035117E9, 0.0, 2025-04-17 18:09:25.035
216.0, 8155.078668007693, 2643.4737614958003, 511.7208375597999, 12590.804706907835, 10479.078946003789, 10505.386949227686, 13859.333259979876, 13533.601288032687, 12925.253859192593, 17739.59609742118, 14802.778041693931, 13180.823705294575, 15247.197776698802, 18635.20814600088, 14454.493159591337, 187500.0, 0.037750000000000006, 0.038250000000000006, 0.980625, 192.0, 0.0, 0.0, 0.0, 0.0, 0.0, 0.0, 0.0, 0.0, 0.0, 1.74492776504322E9, 0.0, 2025-04-17 18:09:25.043
218.0, 8145.288603936268, 2633.750752657742, 504.7470932897441, 12584.702680671535, 10475.592073868762, 10504.112899793732, 13850.012582542013, 13524.593535017197, 12923.666885336266, 17737.070350297734, 14798.195934080593, 13185.025833252173, 15253.63507910193, 18632.861212833075, 14455.119008436086, 187500.0, 0.037750000000000006, 0.038250000000000006, 0.980625, 192.0, 0.0, 0.0, 0.0, 0.0, 0.0, 0.0, 0.0, 0.0, 0.0, 1.744927765052263E9, 0.0, 2025-04-17 18:09:25.052
220.0, 8158.4314296759885, 2646.290081297169, 517.6664015849116, 12599.074852356298, 10489.293693219865, 10516.339304010786, 13856.159312267222, 13527.946296685494, 12919.487109123125, 17745.80988237976, 14792.965625878052, 13180.868408783486, 15249.745875566707, 18635.722236123354, 14451.43097060096, 187500.0, 0.036875000000000005, 0.035125, 0.9803124999999999, 192.0, 0.5, 16.0, 0.5, 0.0, 15.0, 80.0, 0.0, 0.0, 0.0, 1.744927765060337E9, 0.0, 2025-04-17 18:09:25.060
222.0, 8155.95038604145, 2635.6282991919875, 510.4691398703027, 12598.717224445014, 10486.79029784087, 10519.490899978984, 13852.73949536556, 13518.267991336346, 12917.967190500163, 17748.827367881226, 14802.532172504923, 13181.203684950315, 15252.428084901345, 18638.11387278007, 14456.303650892218, 187500.0, 0.036875000000000005, 0.035125, 0.9803124999999999, 192.0, 0.0, 0.0, 0.0, 0.0, 0.0, 0.0, 0.0, 0.0, 0.0, 1.744927765067336E9, 0.0, 2025-04-17 18:09:25.067
224.0, 8166.701575124452, 2643.6525754514428, 516.7946835511545, 12608.417881538617, 10493.31700722182, 10523.737731425492, 13860.74141988056, 13523.587706516708, 12914.592077087413, 17761.120827331644, 14799.35822479227, 13180.019042494183, 15242.68272431883, 18642.651276904497, 14447.832339743656, 187500.0, 0.036875000000000005, 0.035125, 0.9803124999999999, 192.0, 0.0, 0.0, 0.0, 0.0, 0.0, 0.0, 0.0, 0.0, 0.0, 1.744927765074393E9, 0.0, 2025-04-17 18:09:25.074
226.0, 8154.721040096408, 2633.6389939354654, 506.91521250190885, 12592.771660419901, 10476.754364580436, 10509.678484163105, 13855.868739589303, 13520.816090204251, 12917.162527699773, 17758.639783697105, 14809.483565030523, 13180.980167505762, 15253.568023868565, 18639.87966059204, 14460.975165483376, 187500.0, 0.036875000000000005, 0.035125, 0.9803124999999999, 192.0, 0.0, 0.0, 0.0, 0.0, 0.0, 0.0, 0.0, 0.0, 0.0, 1.744927765082407E9, 0.0, 2025-04-17 18:09:25.082
228.0, 8152.351755184145, 2641.4621044948226, 508.2563171692273, 12585.909674872122, 10474.452134901541, 10502.12359453721, 13858.662707646217, 13530.136767642114, 12916.939010255219, 17749.207347536965, 14795.40196602368, 13175.101658714017, 15242.280392918634, 18634.895221578507, 14449.709886277902, 187500.0, 0.036875000000000005, 0.035125, 0.9803124999999999, 192.0, 0.0, 0.0, 0.0, 0.0, 0.0, 0.0, 0.0, 0.0, 0.0, 1.744927765090396E9, 0.0, 2025-04-17 18:09:25.090
230.0, 8143.165188213014, 2632.879034623985, 501.19316592135027, 12575.829038122778, 10465.578492352783, 10496.401547956651, 13853.655916888229, 13530.852023464684, 12924.091568480919, 17742.859452111657, 14804.02973938343, 13179.951987260818, 15256.317288436567, 18631.944791310405, 14459.656412560513, 187500.0, 0.035437500000000004, 0.035562500000000004, 0.97915625, 192.0, 0.5, 8.0, 0.5, 16.0, 15.0, 72.0, 0.0, 0.0, 0.0, 1.744927765098478E9, 0.0, 2025-04-17 18:09:25.098
232.0, 8148.3731446711, 2645.194845818859, 505.1494246899396, 12583.540389959859, 10473.289844189865, 10500.447213703063, 13856.002850056035, 13539.703314268985, 12922.12461496885, 17742.233603266908, 14786.595378708289, 13171.771248790175, 15245.476692375743, 18627.608552886075, 14453.464979346392, 187500.0, 0.035437500000000004, 0.035562500000000004, 0.97915625, 192.0, 0.0, 0.0, 0.0, 0.0, 0.0, 0.0, 0.0, 0.0, 0.0, 1.744927765106497E9, 0.0, 2025-04-17 18:09:25.106
234.0, 8146.696763836952, 2646.491246997267, 504.4341688673698, 12587.563703961814, 10477.849600058747, 10505.498707949962, 13854.371172710798, 13541.089122425214, 12925.879708037342, 17743.530004445318, 14806.466079529058, 13183.215341951292, 15257.189006470324, 18635.006980300783, 14462.517435850792, 187500.0, 0.035437500000000004, 0.035562500000000004, 0.97915625, 192.0, 0.0, 0.0, 0.0, 0.0, 0.0, 0.0, 0.0, 0.0, 0.0, 1.74492776511556E9, 0.0, 2025-04-17 18:09:25.115
236.0, 8151.3906301725665, 2655.744869201764, 507.3845991354703, 12591.139983074663, 10487.88553331918, 10509.812594629837, 13856.896919834247, 13539.859776480173, 12919.017722489563, 17745.765178890848, 14804.856753928276, 13177.247426181726, 15244.448512130799, 18635.766939612262, 14456.10248519212, 187500.0, 0.035437500000000004, 0.035562500000000004, 0.97915625, 192.0, 0.0, 0.0, 0.0, 0.0, 0.0, 0.0, 0.0, 0.0, 0.0, 1.74492776512354E9, 0.0, 2025-04-17 18:09:25.123
238.0, 8152.217644717413, 2653.710860456331, 509.2397939252608, 12594.559799976327, 10493.31700722182, 10514.79703364337, 13856.829864600883, 13533.82480547724, 12920.917620768265, 17750.66021092656, 14817.373730823247, 13182.142458217439, 15257.434875659334, 18640.63961990352, 14466.317232408195, 187500.0, 0.035437500000000004, 0.035562500000000004, 0.97915625, 192.0, 0.0, 0.0, 0.0, 0.0, 0.0, 0.0, 0.0, 0.0, 0.0, 1.744927765131602E9, 0.0, 2025-04-17 18:09:25.131
240.0, 8152.262348206324, 2648.5029039982446, 509.30684915862673, 12593.911599387122, 10492.869972332714, 10512.450100475562, 13855.913443078214, 13531.075540909236, 12915.307332909983, 17748.89442311459, 14811.830498198331, 13175.883969769951, 15253.836244802029, 18638.605611158087, 14458.985860226854, 187500.0, 0.035437500000000004, 0.035562500000000004, 0.97915625, 192.0, 0.0, 0.0, 0.0, 0.0, 0.0, 0.0, 0.0, 0.0, 0.0, 1.744927765140618E9, 0.0, 2025-04-17 18:09:25.140
242.0, 8155.6151098746195, 2646.938281886373, 514.1571777054284, 12601.310026801828, 10491.9759025545, 10518.842699389781, 13856.785161111971, 13528.348628085689, 12920.202364945695, 17755.868167384644, 14823.11812914826, 13192.267798455692, 15263.447494917811, 18644.81939611666, 14469.088848720652, 187500.0, 0.034, 0.034, 0.98, 192.0, 0.5, 8.0, 0.5, 8.0, 15.0, 80.0, 0.0, 0.0, 0.0, 1.744927765147683E9, 0.0, 2025-04-17 18:09:25.147
244.0, 8153.245824962357, 2641.5291597281885, 508.70335205833345, 12598.314893044817, 10484.488068161972, 10514.349998754264, 13855.108780277824, 13522.581878016219, 12913.07215846445, 17755.37642900663, 14804.40971903917, 13179.773173305175, 15245.789616798118, 18639.07499779165, 14451.028639200764, 187500.0, 0.034, 0.034, 0.98, 192.0, 0.0, 0.0, 0.0, 0.0, 0.0, 0.0, 0.0, 0.0, 0.0, 1.744927765154689E9, 0.0, 2025-04-17 18:09:25.154
246.0, 8159.928996554494, 2640.970366116806, 510.35738114802615, 12600.572419234804, 10481.917617549612, 10512.22658303101, 13863.803608870938, 13528.974476930438, 12921.252896935093, 17763.42305701054, 14809.572972008345, 13194.793545579141, 15263.49219840672, 18647.523957195754, 14467.8147992867, 187500.0, 0.034, 0.034, 0.98, 192.0, 0.0, 0.0, 0.0, 0.0, 0.0, 0.0, 0.0, 0.0, 0.0, 1.744927765162732E9, 0.0, 2025-04-17 18:09:25.162
248.0, 8152.888197051072, 2632.096723568049, 499.4944333427469, 12589.105974329232, 10470.987614510968, 10500.782489869893, 13860.808475113927, 13526.292267595802, 12919.55416435649, 17764.18301632202, 14803.269780071949, 13190.010272265707, 15251.735180823229, 18648.10510255159, 14459.946985238432, 187500.0, 0.034, 0.034, 0.98, 192.0, 0.0, 0.0, 0.0, 0.0, 0.0, 0.0, 0.0, 0.0, 0.0, 1.744927765169775E9, 0.0, 2025-04-17 18:09:25.169
250.0, 8154.877502307595, 2637.1482178149486, 503.8306717670765, 12586.691985928057, 10473.200437212043, 10498.659074146637, 13866.239949016566, 13534.24948862189, 12925.7008940817, 17766.95463263448, 14803.828573683331, 13195.151173490427, 15259.69240184932, 18652.083713064636, 14465.177293440975, 187500.0, 0.034, 0.034, 0.98, 192.0, 0.0, 0.0, 0.0, 0.0, 0.0, 0.0, 0.0, 0.0, 0.0, 1.744927765177813E9, 0.0, 2025-04-17 18:09:25.177
252.0, 8143.075781235192, 2623.781874630675, 494.331180373571, 12570.218750264496, 10455.721373047993, 10484.26455071742, 13858.550948923941, 13528.460386807965, 12922.884574280331, 17754.37060050614, 14794.574951478835, 13193.340682189546, 15252.517491879165, 18645.73581763933, 14452.392095612538, 187500.0, 0.036000000000000004, 0.038, 0.984, 192.0, 0.5, 16.0, 0.5, 24.0, 15.0, 96.0, 0.0, 0.0, 0.0, 1.744927765186847E9, 0.0, 2025-04-17 18:09:25.186
254.0, 8155.637461619075, 2639.8304271495854, 506.28936365716027, 12587.362538261717, 10469.288881932365, 10497.429728201596, 13860.69671639165, 13534.562413044265, 12922.705760324689, 17758.75154241938, 14795.312559045859, 13191.865467055497, 15253.053933746092, 18646.2499077618, 14456.504816592314, 187500.0, 0.036000000000000004, 0.038, 0.984, 192.0, 0.0, 0.0, 0.0, 0.0, 0.0, 0.0, 0.0, 0.0, 0.0, 1.744927765194887E9, 0.0, 2025-04-17 18:09:25.194
0.0, 8147.076743492693, 2629.9956595892504, 498.8238810090877, 12582.288692270362, 10465.73495456397, 10498.03322530189, 13852.493626176552, 13527.275744351835, 12916.961361999674, 17755.443484239993, 14793.278550300427, 13185.428164652369, 15244.58262259753, 18642.047779804205, 14447.832339743656, 187500.0, 0.036000000000000004, 0.038, 0.984, 192.0, 0.0, 0.0, 0.0, 0.0, 0.0, 0.0, 0.0, 0.0, 0.0, 1.744927765202912E9, 0.0, 2025-04-17 18:09:25.202
2.0, 8155.816275574717, 2649.9110638989287, 512.749017804744, 12597.331416288784, 10486.11974550721, 10513.455928976051, 13853.45475118813, 13532.863680465662, 12917.095472466406, 17761.210234309463, 14814.624466255245, 13193.005406022718, 15257.54663438161, 18645.713465894874, 14454.962546224899, 187500.0, 0.036000000000000004, 0.038, 0.984, 192.0, 0.0, 0.0, 0.0, 0.0, 0.0, 0.0, 0.0, 0.0, 0.0, 1.74492776521194E9, 0.0, 2025-04-17 18:09:25.211
4.0, 8147.009688259326, 2639.8304271495854, 508.01044798021894, 12597.174954077596, 10487.21498098552, 10516.853394133257, 13844.134073750267, 13519.653799492575, 12909.831155518432, 17752.269536527343, 14802.219248082549, 13177.962682004296, 15249.567061611066, 18634.135262267027, 14452.034467701253, 187500.0, 0.036000000000000004, 0.038, 0.984, 192.0, 0.0, 0.0, 0.0, 0.0, 0.0, 0.0, 0.0, 0.0, 0.0, 1.74492776522003E9, 0.0, 2025-04-17 18:09:25.220
6.0, 8159.683127365485, 2650.581616232588, 521.3320876755819, 12616.442157798072, 10501.989484070478, 10532.700780952071, 13849.878472075281, 13525.666418751052, 12909.339417140416, 17761.27728954283, 14814.110376132772, 13180.443725638836, 15246.862500531972, 18634.671704133954, 14450.313383378194, 187500.0, 0.034, 0.036000000000000004, 0.984, 192.0, 0.5, 8.0, 0.5, 16.0, 15.0, 96.0, 0.0, 0.0, 0.0, 1.744927765226973E9, 0.0, 2025-04-17 18:09:25.226
8.0, 8148.149627226548, 2640.8362556500742, 511.1173404595066, 12606.607390237736, 10492.914675821625, 10525.682333193105, 13844.22348072809, 13516.748072713384, 12907.730091539634, 17754.907042373066, 14797.883009658219, 13169.469019111279, 15237.877099260939, 18624.07697726214, 14445.552461809215, 187500.0, 0.034, 0.036000000000000004, 0.984, 192.0, 0.0, 0.0, 0.0, 0.0, 0.0, 0.0, 0.0, 0.0, 0.0, 1.744927765234109E9, 0.0, 2025-04-17 18:09:25.234
10.0, 8158.677298864997, 2646.0889155970713, 516.6829248288781, 12611.055387384342, 10494.479297933496, 10525.347057026274, 13854.706448877627, 13524.302962339278, 12911.46283286367, 17757.32103077424, 14799.425280025636, 13167.03267896565, 15234.345523637001, 18623.607590628577, 14447.027676943264, 187500.0, 0.034, 0.036000000000000004, 0.984, 192.0, 0.0, 0.0, 0.0, 0.0, 0.0, 0.0, 0.0, 0.0, 0.0, 1.744927765242134E9, 0.0, 2025-04-17 18:09:25.242
12.0, 8150.295394694257, 2633.2366625352697, 503.2942299001491, 12599.097204100754, 10480.129477993189, 10514.12648130971, 13854.393524455254, 13521.956029171472, 12916.827251532943, 17757.03045809632, 14799.671149214644, 13164.641042308933, 15234.412578870366, 18624.92634355144, 14446.155958909507, 187500.0, 0.034, 0.036000000000000004, 0.984, 192.0, 0.0, 0.0, 0.0, 0.0, 0.0, 0.0, 0.0, 0.0, 0.0, 1.744927765251154E9, 0.0, 2025-04-17 18:09:25.251
14.0, 8160.621900632608, 2633.9295666133844, 506.60228807953456, 12599.29836980085, 10472.26166394492, 10506.0798533058, 13868.45277171764, 13532.550756043287, 12922.169318457762, 17765.52412098934, 14792.675053200133, 13174.498161613723, 15240.022866728648, 18635.02933204524, 14445.61951704258, 187500.0, 0.034, 0.036000000000000004, 0.984, 192.0, 0.0, 0.0, 0.0, 0.0, 0.0, 0.0, 0.0, 0.0, 0.0, 1.744927765258177E9, 0.0, 2025-04-17 18:09:25.258
16.0, 8151.882368550583, 2623.0219153191942, 495.47111934079163, 12586.49082022796, 10458.87296901619, 10494.255780488942, 13864.384754226776, 13534.361247344166, 12928.51721388307, 17765.680583200527, 14800.49816375949, 13193.810068823108, 15251.824587801051, 18646.339314739624, 14453.464979346392, 187500.0, 0.036000000000000004, 0.04, 0.988, 192.0, 0.5, 16.0, 0.5, 32.0, 15.0, 112.0, 0.0, 0.0, 0.0, 1.74492776526629E9, 0.0, 2025-04-17 18:09:25.266
18.0, 8154.586929629676, 2640.4786277387893, 501.975476977286, 12589.128326073685, 10465.846713286248, 10495.082795033788, 13864.071829804401, 13544.531291071331, 12926.304391181993, 17764.428885511028, 14787.467096742046, 13191.910170544406, 15252.49514013471, 18647.434550217935, 14457.398886370527, 187500.0, 0.036000000000000004, 0.04, 0.988, 192.0, 0.0, 0.0, 0.0, 0.0, 0.0, 0.0, 0.0, 0.0, 0.0, 1.744927765274315E9, 0.0, 2025-04-17 18:09:25.274
20.0, 8144.774513813796, 2637.3046800261354, 497.66159029741175, 12581.171105047597, 10467.746611564948, 10492.735861865982, 13854.058248288424, 13536.10468341168, 12925.007990003585, 17758.483321485917, 14806.622541740244, 13192.625426366976, 15265.369744940966, 18645.154672283494, 14465.66903181899, 187500.0, 0.036000000000000004, 0.04, 0.988, 192.0, 0.0, 0.0, 0.0, 0.0, 0.0, 0.0, 0.0, 0.0, 0.0, 1.744927765283272E9, 0.0, 2025-04-17 18:09:25.283
22.0, 8157.537359897776, 2647.385316775479, 505.64116306795637, 12593.039881353365, 10479.436573915074, 10502.03418755939, 13857.142789023255, 13532.282535109824, 12916.782548044033, 17762.17135932104, 14808.075405129839, 13184.109411729505, 15254.64090760242, 18643.701808893897, 14456.594223570137, 187500.0, 0.036000000000000004, 0.04, 0.988, 192.0, 0.0, 0.0, 0.0, 0.0, 0.0, 0.0, 0.0, 0.0, 0.0, 1.74492776529127E9, 0.0, 2025-04-17 18:09:25.291
24.0, 8162.164171000025, 2641.5068079837333, 508.99392473625244, 12601.421785524106, 10483.906922806134, 10512.383045242197, 13856.829864600883, 13520.68197973752, 12915.732016054633, 17764.741809933403, 14815.451480800091, 13189.965568776795, 15262.06168676158, 18645.64641066151, 14463.299746906729, 187500.0, 0.036000000000000004, 0.04, 0.988, 192.0, 0.0, 0.0, 0.0, 0.0, 0.0, 0.0, 0.0, 0.0, 0.0, 1.744927765299371E9, 0.0, 2025-04-17 18:09:25.299
26.0, 8164.198179745457, 2642.602043462043, 513.620735838501, 12604.752195447945, 10486.231504229487, 10515.55699295485, 13855.64522214475, 13517.57508725823, 12907.595981072902, 17767.42401926804, 14803.180373094126, 13186.65751059741, 15250.081151733537, 18645.244079261312, 14449.821645000178, 187500.0, 0.034, 0.034, 0.982, 192.0, 0.5, 8.0, 0.5, 8.0, 15.0, 88.0, 0.0, 0.0, 0.0, 1.744927765308433E9, 0.0, 2025-04-17 18:09:25.308
28.0, 8160.599548888154, 2637.9528806153394, 511.1843956928725, 12601.131212846187, 10485.270379217909, 10515.109958065745, 13856.606347156328, 13516.904534924572, 12912.803937530987, 17766.217025067454, 14812.724567976544, 13196.559333391111, 15266.800256586106, 18648.082750807138, 14464.484389362859, 187500.0, 0.034, 0.034, 0.982, 192.0, 0.0, 0.0, 0.0, 0.0, 0.0, 0.0, 0.0, 0.0, 0.0, 1.74492776531453E9, 0.0, 2025-04-17 18:09:25.314
30.0, 8155.637461619075, 2633.4378282353673, 507.8539857690318, 12595.610331965725, 10479.347166937252, 10508.292676006875, 13857.500416934541, 13517.15040411358, 12910.725225296645, 17765.345307033695, 14809.46121328607, 13192.625426366976, 15250.058799989081, 18647.5016054513, 14449.419313599983, 187500.0, 0.034, 0.034, 0.982, 192.0, 0.0, 0.0, 0.0, 0.0, 0.0, 0.0, 0.0, 0.0, 0.0, 1.744927765322472E9, 0.0, 2025-04-17 18:09:25.322
32.0, 8153.022307517805, 2637.5952527040545, 507.20578517982784, 12591.139983074663, 10479.056594259333, 10504.98461782749, 13860.65201290274, 13523.96768617245, 12920.381178901336, 17764.04890585529, 14816.367902322758, 13199.979150292773, 15266.330869952544, 18647.188681028925, 14468.15007545353, 187500.0, 0.034, 0.034, 0.982, 192.0, 0.0, 0.0, 0.0, 0.0, 0.0, 0.0, 0.0, 0.0, 0.0, 1.744927765333538E9, 0.0, 2025-04-17 18:09:25.333
34.0, 8147.099095237148, 2638.5116742267223, 501.81901476609886, 12580.120573058197, 10471.859332544725, 10494.03226304439, 13858.662707646217, 13527.834537963217, 12918.950667256197, 17756.963402862955, 14791.825686910832, 13186.970435019784, 15245.856672031483, 18640.97489607035, 14452.459150845903, 187500.0, 0.034, 0.034, 0.982, 192.0, 0.0, 0.0, 0.0, 0.0, 0.0, 0.0, 0.0, 0.0, 0.0, 1.744927765339598E9, 0.0, 2025-04-17 18:09:25.339
36.0, 8146.495598136855, 2637.7964184041525, 504.23300316727205, 12573.34799448824, 10467.1207627202, 10488.466678675019, 13860.093219291357, 13537.378732845633, 12925.23150744814, 17756.69518192949, 14804.387367294714, 13194.882952556964, 15264.743896096219, 18640.997247814805, 14469.29001442075, 187500.0, 0.032, 0.034, 0.982, 192.0, 0.5, 0.0, 0.5, 8.0, 15.0, 88.0, 0.0, 0.0, 0.0, 1.744927765346621E9, 0.0, 2025-04-17 18:09:25.346
38.0, 8140.795903300751, 2630.129770055982, 498.2203839087944, 12560.071058281786, 10455.944890492547, 10477.402565169641, 13856.583995411873, 13536.10468341168, 12920.828213790443, 17749.542623703794, 14788.87525664273, 13186.098716986027, 15252.852768045996, 18634.78346285623, 14460.10344744962, 187500.0, 0.032, 0.034, 0.982, 192.0, 0.0, 0.0, 0.0, 0.0, 0.0, 0.0, 0.0, 0.0, 0.0, 1.744927765354632E9, 0.0, 2025-04-17 18:09:25.354
40.0, 8147.814351059717, 2637.9305288708842, 503.42834036688095, 12565.569587417793, 10459.78939053886, 10479.861257059725, 13859.355611724332, 13544.128959671136, 12926.080873737441, 17754.638821439603, 14807.02487314044, 13193.787717078652, 15258.664221604375, 18641.667800148465, 14467.300709164228, 187500.0, 0.032, 0.034, 0.982, 192.0, 0.0, 0.0, 0.0, 0.0, 0.0, 0.0, 0.0, 0.0, 0.0, 1.744927765362624E9, 0.0, 2025-04-17 18:09:25.362
42.0, 8141.220586445402, 2634.2424910357586, 497.01338970820785, 12561.322755971285, 10456.615442826205, 10476.396736669152, 13850.101989519835, 13535.68000026703, 12920.112957967873, 17747.642725425092, 14781.700346672576, 13183.684728584854, 15247.488349376721, 18635.230497745335, 14458.494121848837, 187500.0, 0.032, 0.034, 0.982, 192.0, 0.0, 0.0, 0.0, 0.0, 0.0, 0.0, 0.0, 0.0, 0.0, 1.74492776537171E9, 0.0, 2025-04-17 18:09:25.371
44.0, 8152.66467960652, 2640.8586073945294, 509.01627648070775, 12579.785296891368, 10474.161562223622, 10496.088623534277, 13854.952318066637, 13533.377770588133, 12918.190707944717, 17754.303545272774, 14793.367957278248, 13186.098716986027, 15250.908166278383, 18637.376265213046, 14460.014040471799, 187500.0, 0.032, 0.034, 0.982, 192.0, 0.0, 0.0, 0.0, 0.0, 0.0, 0.0, 0.0, 0.0, 0.0, 1.744927765379777E9, 0.0, 2025-04-17 18:09:25.379
46.0, 8150.004822016338, 2632.2084822903257, 504.21065142281674, 12577.907750357122, 10468.171294709598, 10496.379196212196, 13850.839597086859, 13516.14457561309, 12910.07702470744, 17746.1898620355, 14792.429184011125, 13184.288225685148, 15246.72839006524, 18637.5997826576, 14449.776941511267, 187500.0, 0.031, 0.033, 0.982, 192.0, 0.0, 120.0, 0.5, 0.0, 15.0, 88.0, 0.0, 0.0, 0.0, 1.744927765387806E9, 0.0, 2025-04-17 18:09:25.387
48.0, 8163.5946826451645, 2644.4348865073785, 517.0182009957076, 12590.938817374566, 10483.057556516833, 10508.717359151526, 13856.159312267222, 13519.43028204802, 12911.596943330402, 17756.114036573654, 14800.140535848206, 13192.111336244505, 15248.87415753295, 18641.801910615195, 14449.911051977999, 187500.0, 0.031, 0.033, 0.982, 192.0, 0.0, 0.0, 0.0, 0.0, 0.0, 0.0, 0.0, 0.0, 0.0, 1.744927765394809E9, 0.0, 2025-04-17 18:09:25.394
50.0, 8154.18459822948, 2634.9353951138733, 507.8092822801212, 12584.233294037975, 10475.815591313314, 10504.872859105213, 13847.59859414084, 13511.406005788567, 12909.451175862692, 17746.480434713416, 14791.557465977368, 13178.700289571321, 15238.63705857242, 18632.660047132977, 14446.960621709899, 187500.0, 0.031, 0.033, 0.982, 192.0, 0.0, 0.0, 0.0, 0.0, 0.0, 0.0, 0.0, 0.0, 0.0, 1.744927765402006E9, 0.0, 2025-04-17 18:09:25.402
52.0, 8165.85220883515, 2641.1491800724484, 516.7946835511545, 12595.386814521173, 10482.565818138817, 10513.590039442783, 13855.488759933563, 13518.759729714362, 12913.206268931184, 17748.492091714394, 14789.702271187578, 13173.626443579966, 15241.788654540618, 18632.391826199513, 14447.340601365639, 187500.0, 0.031, 0.033, 0.982, 192.0, 0.0, 0.0, 0.0, 0.0, 0.0, 0.0, 0.0, 0.0, 0.0, 1.744927765409886E9, 0.0, 2025-04-17 18:09:25.409
54.0, 8158.677298864997, 2629.7944938891524, 508.2116136803167, 12593.486916242471, 10474.318024434808, 10512.65126617566, 13853.432399443675, 13516.077520379726, 12916.313161410471, 17748.536795203305, 14786.774192663932, 13183.684728584854, 15246.437817387321, 18634.179965755935, 14449.15109266652, 187500.0, 0.031, 0.033, 0.982, 192.0, 0.0, 0.0, 0.0, 0.0, 0.0, 0.0, 0.0, 0.0, 0.0, 1.74492776541792E9, 0.0, 2025-04-17 18:09:25.417
56.0, 8169.5849501591865, 2643.227892306792, 520.0580382416294, 12606.92031466011, 10483.348129194752, 10521.770777913425, 13863.200111770644, 13527.700427496486, 12917.944838755708, 17762.551338976784, 14796.698367202089, 13188.870333298486, 15246.840148787518, 18644.41706471647, 14453.822607257678, 187500.0, 0.0305, 0.0285, 0.982, 192.0, 0.0, 120.0, 0.0, 96.0, 15.0, 88.0, 0.0, 0.0, 0.0, 1.744927765425959E9, 0.0, 2025-04-17 18:09:25.425
58.0, 8159.213740731924, 2629.459217722323, 508.4798346137804, 12597.06319535532, 10474.720355835005, 10513.254763275954, 13857.053382045435, 13525.331142584222, 12918.436577133725, 17764.115961088653, 14796.206628824071, 13190.233789710259, 15250.528186622643, 18644.39471297201, 14457.66710730399, 187500.0, 0.0305, 0.0285, 0.982, 192.0, 0.0, 0.0, 0.0, 0.0, 0.0, 0.0, 0.0, 0.0, 0.0, 1.744927765434042E9, 0.0, 2025-04-17 18:09:25.434
60.0, 8164.645214634564, 2648.078220853594, 514.7159713168111, 12600.460660512526, 10481.001196026946, 10514.640571432183, 13863.468332704108, 13538.16104390157, 12919.397702145303, 17770.396801280596, 14795.625483468233, 13190.792583321641, 15255.423218658356, 18648.619192674065, 14462.38332538406, 187500.0, 0.0305, 0.0285, 0.982, 192.0, 0.0, 0.0, 0.0, 0.0, 0.0, 0.0, 0.0, 0.0, 0.0, 1.744927765442085E9, 0.0, 2025-04-17 18:09:25.442
62.0, 8153.514045895821, 2635.069505580605, 505.7082183013223, 12593.285750542373, 10471.859332544725, 10509.700835907559, 13855.2205390001, 13533.131901399125, 12920.917620768265, 17766.619356467647, 14799.671149214644, 13185.5622751191, 15263.201625728801, 18640.3490472256, 14466.540749852747, 187500.0, 0.0305, 0.0285, 0.982, 192.0, 0.0, 0.0, 0.0, 0.0, 0.0, 0.0, 0.0, 0.0, 0.0, 1.744927765451149E9, 0.0, 2025-04-17 18:09:25.451
64.0, 8158.722002353908, 2640.9256626278952, 512.1008172155401, 12596.884381399677, 10471.077021488789, 10507.286847506386, 13856.628698900784, 13533.467177565954, 12919.218888189662, 17769.7933041803, 14794.30673054537, 13187.998615264729, 15251.77988431214, 18640.25964024778, 14455.297822391729, 187500.0, 0.0305, 0.0285, 0.982, 192.0, 0.0, 0.0, 0.0, 0.0, 0.0, 0.0, 0.0, 0.0, 0.0, 1.744927765459159E9, 0.0, 2025-04-17 18:09:25.459
66.0, 8150.18363597198, 2630.643860178454, 506.95991599081947, 12588.748346417946, 10465.712602819516, 10503.352940482253, 13850.839597086859, 13525.778177473328, 12919.218888189662, 17762.350173276685, 14795.06668985685, 13188.199780964826, 15253.63507910193, 18636.59395415711, 14455.566043325192, 187500.0, 0.029249999999999998, 0.026250000000000002, 0.984, 192.0, 0.0, 112.0, 0.0, 96.0, 15.0, 104.0, 0.0, 0.0, 0.0, 1.744927765468229E9, 0.0, 2025-04-17 18:09:25.468
68.0, 8153.916377296016, 2647.0053371197387, 514.0454189831519, 12591.408204008128, 10477.648434358649, 10506.705702150548, 13852.091294776357, 13524.615886761652, 12913.832117775932, 17763.08778084371, 14794.440841012103, 13182.298920428626, 15245.700209820297, 18636.77276811275, 14450.000458955821, 187500.0, 0.029249999999999998, 0.026250000000000002, 0.984, 192.0, 0.0, 0.0, 0.0, 0.0, 0.0, 0.0, 0.0, 0.0, 0.0, 1.744927765475251E9, 0.0, 2025-04-17 18:09:25.475
70.0, 8149.1554557270365, 2636.008278847728, 508.41277938041446, 12585.239122538464, 10468.506570876429, 10503.531754437894, 13848.537367407962, 13518.91619192555, 12916.380216643836, 17755.555242962273, 14802.666282971655, 13186.769269319686, 15250.43877964482, 18635.87869833454, 14451.654488045513, 187500.0, 0.029249999999999998, 0.026250000000000002, 0.984, 192.0, 0.0, 0.0, 0.0, 0.0, 0.0, 0.0, 0.0, 0.0, 0.0, 1.744927765482217E9, 0.0, 2025-04-17 18:09:25.482
72.0, 8159.28079596529, 2647.385316775479, 513.5760323495904, 12593.218695309008, 10482.655225116638, 10509.477318463007, 13854.460579688619, 13522.291305338302, 12914.614428831868, 17759.46679824195, 14792.652701455678, 13181.628368094965, 15239.888756261917, 18635.990457056818, 14448.458188588404, 187500.0, 0.029249999999999998, 0.026250000000000002, 0.984, 192.0, 0.0, 0.0, 0.0, 0.0, 0.0, 0.0, 0.0, 0.0, 0.0, 1.744927765490235E9, 0.0, 2025-04-17 18:09:25.490
74.0, 8158.274967464801, 2644.1443138294594, 511.6984858153446, 12590.82705865229, 10478.453097159041, 10509.633780674194, 13856.36047796732, 13524.124148383637, 12922.12461496885, 17761.925490132035, 14805.706120217577, 13196.581685135567, 15261.301727450102, 18640.326695481148, 14462.629194573068, 187500.0, 0.029249999999999998, 0.026250000000000002, 0.984, 192.0, 0.0, 0.0, 0.0, 0.0, 0.0, 0.0, 0.0, 0.0, 0.0, 1.744927765498288E9, 0.0, 2025-04-17 18:09:25.498
76.0, 8157.872636064606, 2644.5242934852, 511.9667067488083, 12589.418898751605, 10480.665919860116, 10509.387911485186, 13857.947451823647, 13526.493433295898, 12917.855431777887, 17759.243280797396, 14796.720718946544, 13186.344586175035, 15243.621497585953, 18636.191622756913, 14453.554386324215, 187500.0, 0.029625, 0.027125000000000003, 0.984, 192.0, 0.0, 120.0, 0.0, 112.0, 15.0, 96.0, 0.0, 0.0, 0.0, 1.744927765505379E9, 0.0, 2025-04-17 18:09:25.505
78.0, 8153.759915084829, 2649.486380754278, 512.0561137266295, 12587.228427794986, 10480.64356811566, 10508.65030391816, 13857.567472167906, 13528.996828674894, 12924.069216736463, 17757.52219647434, 14805.303788817382, 13191.731356588765, 15259.625346615952, 18637.040989046214, 14464.015002729298, 187500.0, 0.029625, 0.027125000000000003, 0.984, 192.0, 0.0, 0.0, 0.0, 0.0, 0.0, 0.0, 0.0, 0.0, 0.0, 1.744927765514366E9, 0.0, 2025-04-17 18:09:25.514
80.0, 8155.570406385709, 2645.0607353521273, 512.3466864045484, 12590.447078996549, 10483.83986757277, 10510.572553941316, 13855.712277378116, 13527.029875162825, 12919.196536445206, 17757.768065663346, 14793.032681111417, 13180.89076052794, 15244.180291197335, 18630.78250059873, 14450.33573512265, 187500.0, 0.029625, 0.027125000000000003, 0.984, 192.0, 0.0, 0.0, 0.0, 0.0, 0.0, 0.0, 0.0, 0.0, 0.0, 1.744927765523386E9, 0.0, 2025-04-17 18:09:25.523
82.0, 8157.067973264215, 2644.1219620850043, 514.2912881721602, 12593.553971475838, 10486.0750420183, 10513.858260376246, 13855.354649466832, 13531.723741498441, 12923.97980975864, 17762.908966888066, 14807.494259774001, 13185.808144308108, 15253.523320379654, 18636.63865764602, 14463.791485284744, 187500.0, 0.029625, 0.027125000000000003, 0.984, 192.0, 0.0, 0.0, 0.0, 0.0, 0.0, 0.0, 0.0, 0.0, 0.0, 1.744927765530378E9, 0.0, 2025-04-17 18:09:25.530
84.0, 8153.648156362553, 2639.7857236606746, 510.08916021456247, 12588.502477228938, 10476.463791902517, 10507.532716695396, 13849.006754041524, 13529.734436241919, 12918.078949222441, 17758.729190674923, 14787.221227553038, 13176.822743037075, 15239.039389972615, 18630.179003498437, 14449.888700233543, 187500.0, 0.029625, 0.027125000000000003, 0.984, 192.0, 0.0, 0.0, 0.0, 0.0, 0.0, 0.0, 0.0, 0.0, 0.0, 1.744927765539397E9, 0.0, 2025-04-17 18:09:25.539
86.0, 8154.810447074229, 2640.4786277387893, 514.0677707276071, 12590.290616785362, 10476.106163991233, 10507.532716695396, 13848.40325694123, 13531.969610687449, 12921.766987057566, 17764.428885511028, 14791.043375854895, 13178.588530849043, 15248.382419154934, 18631.363645954567, 14457.734162537357, 187500.0, 0.0298125, 0.027562500000000004, 0.983, 192.0, 0.0, 120.0, 0.0, 112.0, 15.0, 88.0, 0.0, 0.0, 0.0, 1.744927765547452E9, 0.0, 2025-04-17 18:09:25.547
88.0, 8148.060220248726, 2631.6943921678535, 507.27284041319376, 12585.462639983016, 10473.021623256402, 10503.867030604724, 13843.575280138884, 13524.928811184027, 12916.000236988097, 17757.164568563054, 14779.800448393877, 13176.196894192326, 15234.434930614821, 18627.273276719246, 14441.819720485179, 187500.0, 0.0298125, 0.027562500000000004, 0.983, 192.0, 0.0, 0.0, 0.0, 0.0, 0.0, 0.0, 0.0, 0.0, 0.0, 1.744927765555608E9, 0.0, 2025-04-17 18:09:25.555
90.0, 8156.352717441645, 2634.734229413775, 514.3136399166156, 12596.25853255493, 10479.727146592993, 10514.595867943272, 13848.64912613024, 13527.566317029754, 12919.621219589857, 17764.04890585529, 14796.988939880008, 13181.18133320586, 15244.672029575353, 18634.06820703366, 14454.068476446686, 187500.0, 0.0298125, 0.027562500000000004, 0.983, 192.0, 0.0, 0.0, 0.0, 0.0, 0.0, 0.0, 0.0, 0.0, 0.0, 1.744927765563643E9, 0.0, 2025-04-17 18:09:25.563
92.0, 8146.495598136855, 2635.5612439586216, 507.51870960220214, 12587.63075919518, 10473.736879078971, 10508.829117873802, 13841.720085349094, 13518.983247158916, 12914.50267010959, 17752.649516183083, 14782.415602495146, 13176.7109843148, 15241.989820240715, 18623.6969976064, 14446.737104265345, 187500.0, 0.0298125, 0.027562500000000004, 0.983, 192.0, 0.0, 0.0, 0.0, 0.0, 0.0, 0.0, 0.0, 0.0, 0.0, 1.744927765569673E9, 0.0, 2025-04-17 18:09:25.569
94.0, 8160.823066332707, 2643.943148129362, 518.0687329851071, 12604.081643114287, 10485.963283296023, 10521.569612213329, 13853.298288976943, 13518.849136692184, 12916.55903059948, 17760.696144186993, 14786.751840919476, 13181.114277972494, 15242.772131296651, 18630.983666298827, 14447.38530485455, 187500.0, 0.0298125, 0.027562500000000004, 0.983, 192.0, 0.0, 0.0, 0.0, 0.0, 0.0, 0.0, 0.0, 0.0, 0.0, 1.74492776557867E9, 0.0, 2025-04-17 18:09:25.578
96.0, 8151.703554594941, 2636.0529823366383, 508.7927590361547, 12594.559799976327, 10478.587207625773, 10515.400530743664, 13848.73853310806, 13520.190241359502, 12916.044940477008, 17755.80111215128, 14791.624521210733, 13178.141495959939, 15241.743951051707, 18630.82720408764, 14448.726409521869, 187500.0, 0.02890625, 0.026781250000000003, 0.9844999999999999, 192.0, 0.0, 112.0, 0.0, 104.0, 15.0, 104.0, 0.0, 0.0, 0.0, 1.744927765588731E9, 0.0, 2025-04-17 18:09:25.588
98.0, 8160.1972174879575, 2652.5709214891103, 519.0298579966853, 12602.807593680334, 10491.528867665395, 10522.351923269263, 13855.041725044457, 13529.600325775185, 12921.074082979452, 17763.579519221727, 14799.224114325538, 13187.238655953248, 15253.948003524305, 18638.62796290254, 14458.605880571115, 187500.0, 0.02890625, 0.026781250000000003, 0.9844999999999999, 192.0, 0.0, 0.0, 0.0, 0.0, 0.0, 0.0, 0.0, 0.0, 0.0, 1.744927765594767E9, 0.0, 2025-04-17 18:09:25.594
100.0, 8145.176845213991, 2644.0549068516384, 509.03862822516305, 12586.893151628155, 10482.141134994166, 10511.824251630815, 13845.78810283996, 13524.370017572644, 12918.302466666993, 17752.113074316156, 14802.934503905119, 13177.985033748751, 15247.108369720981, 18629.620209887053, 14457.376534626072, 187500.0, 0.02890625, 0.026781250000000003, 0.9844999999999999, 192.0, 0.0, 0.0, 0.0, 0.0, 0.0, 0.0, 0.0, 0.0, 0.0, 1.744927765601823E9, 0.0, 2025-04-17 18:09:25.601
102.0, 8155.3245371967005, 2655.4766482683003, 516.8393870400652, 12594.40333776514, 10489.159582753133, 10516.898097622168, 13852.627736643284, 13532.215479876457, 12920.18001320124, 17757.812769152257, 14805.951989406585, 13178.27560642667, 15247.957736010283, 18631.67657037694, 14461.802180028222, 187500.0, 0.02890625, 0.026781250000000003, 0.9844999999999999, 192.0, 0.0, 0.0, 0.0, 0.0, 0.0, 0.0, 0.0, 0.0, 0.0, 1.744927765610855E9, 0.0, 2025-04-17 18:09:25.610
104.0, 8147.076743492693, 2640.3445172720576, 505.7082183013223, 12586.06613708331, 10476.843771558259, 10509.65613241865, 13846.324544706888, 13525.554660028776, 12919.017722489563, 17757.745713918892, 14803.113317860762, 13174.676975569366, 15243.621497585953, 18629.77667209824, 14456.638927059046, 187500.0, 0.02890625, 0.026781250000000003, 0.9844999999999999, 192.0, 0.0, 0.0, 0.0, 0.0, 0.0, 0.0, 0.0, 0.0, 0.0, 1.74492776561884E9, 0.0, 2025-04-17 18:09:25.618
106.0, 8159.23609247638, 2649.9557673878394, 515.8559102840317, 12597.532581988882, 10486.767946096415, 10516.473414477518, 13851.063114531413, 13528.907421697071, 12918.794205045011, 17765.255900055876, 14803.023910882941, 13182.634196595454, 15244.314401664067, 18632.88356457753, 14454.560214824704, 187500.0, 0.02890625, 0.026781250000000003, 0.9844999999999999, 192.0, 0.0, 0.0, 0.0, 0.0, 0.0, 0.0, 0.0, 0.0, 0.0, 1.744927765626889E9, 0.0, 2025-04-17 18:09:25.626
108.0, 8151.770609828307, 2634.6001189470435, 507.98809623576363, 12589.888285385166, 10476.307329691332, 10510.863126619235, 13844.491701661553, 13519.184412859013, 12915.955533499186, 17758.393914508095, 14793.703233445078, 13176.487466870245, 15238.704113805785, 18627.988532541818, 14447.899394977021, 187500.0, 0.026000000000000002, 0.03, 0.988, 192.0, 0.0, 104.0, 0.0, 120.0, 15.0, 112.0, 0.0, 0.0, 0.0, 1.744927765635927E9, 0.0, 2025-04-17 18:09:25.635
110.0, 8157.984394786882, 2646.6924126973645, 516.7052765733333, 12591.050576096843, 10478.74366983696, 10510.907830108146, 13848.447960430141, 13525.711122239964, 12913.027454975541, 17756.873995885133, 14787.914131631152, 13169.446667366823, 15230.456320101777, 18625.30632320718, 14437.52818554976, 187500.0, 0.026000000000000002, 0.03, 0.988, 192.0, 0.0, 0.0, 0.0, 0.0, 0.0, 0.0, 0.0, 0.0, 0.0, 1.744927765641898E9, 0.0, 2025-04-17 18:09:25.641
112.0, 8150.496560394355, 2633.9742701022947, 507.25048866873846, 12585.596750449748, 10473.222788956498, 10506.146908539165, 13844.357591194821, 13519.877316937127, 12914.346207898405, 17753.40947549456, 14792.45153575558, 13169.290205155636, 15231.171575924347, 18624.05462551768, 14445.284240875751, 187500.0, 0.026000000000000002, 0.03, 0.988, 192.0, 0.0, 0.0, 0.0, 0.0, 0.0, 0.0, 0.0, 0.0, 0.0, 1.744927765649982E9, 0.0, 2025-04-17 18:09:25.649
114.0, 8160.621900632608, 2639.875130638496, 512.7043143158334, 12596.079718599287, 10481.738803593971, 10510.974885341511, 13850.437265686664, 13522.91715418305, 12912.692178808711, 17760.00324010888, 14782.884989128708, 13165.825684765065, 15222.454395586778, 18626.69213136341, 14434.42129307047, 187500.0, 0.026000000000000002, 0.03, 0.988, 192.0, 0.0, 0.0, 0.0, 0.0, 0.0, 0.0, 0.0, 0.0, 0.0, 1.744927765658026E9, 0.0, 2025-04-17 18:09:25.658
116.0, 8155.816275574717, 2629.034534577672, 506.55758459062395, 12593.218695309008, 10473.178085467587, 10510.0808155633, 13848.73853310806, 13518.357398314167, 12916.26845792156, 17759.667963942047, 14790.21636131005, 13172.553559846112, 15242.034523729626, 18627.943829052907, 14448.257022888307, 187500.0, 0.026000000000000002, 0.03, 0.988, 192.0, 0.0, 0.0, 0.0, 0.0, 0.0, 0.0, 0.0, 0.0, 0.0, 1.744927765665111E9, 0.0, 2025-04-17 18:09:25.665
118.0, 8158.386726187078, 2639.383392260479, 512.0784654710848, 12595.029186609887, 10476.59790236925, 10509.812594629837, 13851.487797676064, 13523.408892561067, 12913.6980073092, 17764.808865166768, 14785.88012288572, 13170.676013311866, 15230.411616612866, 18629.195526742402, 14439.04810417272, 187500.0, 0.03, 0.028, 0.984, 192.0, 0.0, 120.0, 0.0, 112.0, 15.0, 96.0, 0.0, 0.0, 0.0, 1.744927765673122E9, 0.0, 2025-04-17 18:09:25.673
120.0, 8148.887234793572, 2635.1812643028816, 507.74222704675526, 12590.380023763184, 10474.586245368273, 10507.577420184305, 13846.615117384807, 13520.3914070596, 12919.196536445206, 17758.773894163834, 14791.73627993301, 13174.811086036098, 15244.761436553174, 18624.144032495504, 14457.197720670429, 187500.0, 0.03, 0.028, 0.984, 192.0, 0.0, 0.0, 0.0, 0.0, 0.0, 0.0, 0.0, 0.0, 0.0, 1.744927765682148E9, 0.0, 2025-04-17 18:09:25.682
122.0, 8146.249728947846, 2644.457238251834, 507.25048866873846, 12587.451945239538, 10476.486143646973, 10503.777623626904, 13846.905690062726, 13524.794700717295, 12915.083815465428, 17754.75058016188, 14783.063803084351, 13165.065725453584, 15231.640962557909, 18620.79127082721, 14440.925650706966, 187500.0, 0.03, 0.028, 0.984, 192.0, 0.0, 0.0, 0.0, 0.0, 0.0, 0.0, 0.0, 0.0, 0.0, 1.744927765690133E9, 0.0, 2025-04-17 18:09:25.690
124.0, 8143.9922027578605, 2642.3785260174905, 503.7189130448, 12587.943683617556, 10478.721318092505, 10506.437481217084, 13846.011620284513, 13526.87341295164, 12921.632876590835, 17754.59411795069, 14791.401003766181, 13178.23090293776, 15243.800311541596, 18622.82527957264, 14451.073342689675, 187500.0, 0.03, 0.028, 0.984, 192.0, 0.0, 0.0, 0.0, 0.0, 0.0, 0.0, 0.0, 0.0, 0.0, 1.744927765698237E9, 0.0, 2025-04-17 18:09:25.698
126.0, 8146.875577792594, 2643.6302237069876, 503.98713397826367, 12589.284788284873, 10480.129477993189, 10508.538545195883, 13844.804626083927, 13525.711122239964, 12915.620257332357, 17757.9915831079, 14788.629387453722, 13170.787772034142, 15234.479634103733, 18622.40059642799, 14441.126816407064, 187500.0, 0.03, 0.028, 0.984, 192.0, 0.0, 0.0, 0.0, 0.0, 0.0, 0.0, 0.0, 0.0, 0.0, 1.744927765707233E9, 0.0, 2025-04-17 18:09:25.707
128.0, 8155.078668007693, 2647.139447586471, 510.5138433592133, 12600.997102379455, 10488.846658330758, 10520.966115113035, 13847.866815074303, 13526.292267595802, 12916.849603277398, 17764.361830277663, 14795.491373001501, 13180.80135355012, 15245.320230164556, 18630.156651753983, 14450.492197333837, 187500.0, 0.034, 0.028, 0.982, 192.0, 0.5, 8.0, 0.0, 112.0, 15.0, 88.0, 0.0, 0.0, 0.0, 1.744927765715298E9, 0.0, 2025-04-17 18:09:25.715
130.0, 8157.045621519759, 2643.7866859181745, 511.78789279316584, 12604.573381492304, 10490.79126009837, 10523.581269214304, 13845.810454584414, 13522.492471038398, 12910.345245640905, 17764.9429756335, 14790.171657821138, 13173.335870902047, 15237.005381227182, 18627.005055785783, 14446.04420018723, 187500.0, 0.034, 0.028, 0.982, 192.0, 0.0, 0.0, 0.0, 0.0, 0.0, 0.0, 0.0, 0.0, 0.0, 1.744927765723365E9, 0.0, 2025-04-17 18:09:25.723
132.0, 8161.985357044382, 2647.452372008845, 517.5322911181797, 12609.937800161577, 10496.334492723287, 10531.1361588402, 13847.397428440741, 13522.403064060578, 12912.803937530987, 17768.899234402088, 14800.855791670776, 13180.935464016851, 15249.365895910967, 18628.368512197558, 14453.95671772441, 187500.0, 0.034, 0.028, 0.982, 192.0, 0.0, 0.0, 0.0, 0.0, 0.0, 0.0, 0.0, 0.0, 0.0, 1.744927765729392E9, 0.0, 2025-04-17 18:09:25.729
134.0, 8158.118505253614, 2638.645784693454, 510.5808985925792, 12603.299332058352, 10485.471544918008, 10523.290696536385, 13846.235137729067, 13516.949238413483, 12906.858373505876, 17767.289908801307, 14789.992843865497, 13171.055992967606, 15234.054950959082, 18625.753358096285, 14438.846938472623, 187500.0, 0.034, 0.028, 0.982, 192.0, 0.0, 0.0, 0.0, 0.0, 0.0, 0.0, 0.0, 0.0, 0.0, 1.744927765737397E9, 0.0, 2025-04-17 18:09:25.737
136.0, 8163.3041099672455, 2642.870264395507, 516.4817591287803, 12608.328474560794, 10490.12070776471, 10527.60458321626, 13849.409085441719, 13520.570221015243, 12912.870992764354, 17767.155798334577, 14799.425280025636, 13177.672109326377, 15246.214299942769, 18627.92147730845, 14453.174406668473, 187500.0, 0.034, 0.028, 0.982, 192.0, 0.0, 0.0, 0.0, 0.0, 0.0, 0.0, 0.0, 0.0, 0.0, 1.744927765746479E9, 0.0, 2025-04-17 18:09:25.746
138.0, 8156.151551741547, 2637.1705695594037, 510.29032591466023, 12603.679311714091, 10487.729071107993, 10524.050655847866, 13843.910556305715, 13520.302000081778, 12909.898210751799, 17761.076123842733, 14796.340739290803, 13163.724620786264, 15233.92084049235, 18619.91955279345, 14440.702133262414, 187500.0, 0.03, 0.032, 0.982, 192.0, 0.0, 120.0, 0.5, 0.0, 15.0, 88.0, 0.0, 0.0, 0.0, 1.74492776575348E9, 0.0, 2025-04-17 18:09:25.753
140.0, 8160.1972174879575, 2646.200674319348, 518.3146021741155, 12608.864916427723, 10494.233428744486, 10527.93985938309, 13849.610251141818, 13528.907421697071, 12918.347170155905, 17766.552301234282, 14813.5962860103, 13174.721679058275, 15247.935384265827, 18624.50166040679, 14453.286165390751, 187500.0, 0.03, 0.032, 0.982, 192.0, 0.0, 0.0, 0.0, 0.0, 0.0, 0.0, 0.0, 0.0, 0.0, 1.744927765761514E9, 0.0, 2025-04-17 18:09:25.761
142.0, 8147.523778381798, 2636.365906759013, 507.4293026243809, 12594.939779632066, 10477.715489592016, 10513.880612120702, 13843.038838271958, 13523.543003027798, 12916.581382343935, 17756.784588907314, 14793.144439833695, 13170.072516211572, 15236.312477149067, 18617.282046947723, 14445.708924020402, 187500.0, 0.03, 0.032, 0.982, 192.0, 0.0, 0.0, 0.0, 0.0, 0.0, 0.0, 0.0, 0.0, 0.0, 1.744927765769562E9, 0.0, 2025-04-17 18:09:25.769
144.0, 8152.999955773349, 2648.9499388873505, 514.8947852724535, 12597.800802922346, 10483.303425705843, 10514.037074331889, 13847.93387030767, 13530.740264742408, 12920.291771923516, 17760.38321976462, 14800.296998059393, 13174.766382547186, 15241.676895818342, 18622.26648596126, 14449.732238022358, 187500.0, 0.03, 0.032, 0.982, 192.0, 0.0, 0.0, 0.0, 0.0, 0.0, 0.0, 0.0, 0.0, 0.0, 1.744927765778606E9, 0.0, 2025-04-17 18:09:25.778
146.0, 8144.416885902511, 2638.690488182365, 503.96478223380836, 12590.06709934081, 10478.386041925674, 10509.879649863202, 13844.40229468373, 13524.347665828189, 12917.810728288976, 17753.454178983473, 14791.535114232913, 13168.105562699506, 15233.518509092155, 18618.35493068158, 14441.976182696366, 187500.0, 0.03, 0.032, 0.982, 192.0, 0.0, 0.0, 0.0, 0.0, 0.0, 0.0, 0.0, 0.0, 0.0, 1.744927765786639E9, 0.0, 2025-04-17 18:09:25.786
148.0, 8154.6763366074965, 2648.122924342504, 512.2125759378166, 12600.997102379455, 10489.494858919961, 10519.088568578789, 13853.387695954765, 13532.349590343189, 12921.789338802022, 17763.244243054898, 14805.92963766213, 13180.08609772755, 15249.097674977504, 18632.905916321983, 14459.522302093781, 187500.0, 0.034, 0.032, 0.982, 192.0, 0.5, 8.0, 0.5, 0.0, 15.0, 88.0, 0.0, 0.0, 0.0, 1.744927765794653E9, 0.0, 2025-04-17 18:09:25.794
150.0, 8140.080647478181, 2641.4397527503675, 504.52357584519103, 12584.389756249162, 10475.882646546681, 10508.024455073411, 13841.876547560281, 13524.861755950662, 12919.084777722928, 17753.81180689476, 14794.597303223289, 13173.581740091055, 15242.369799896456, 18624.568715640155, 14450.603956056113, 187500.0, 0.034, 0.032, 0.982, 192.0, 0.0, 0.0, 0.0, 0.0, 0.0, 0.0, 0.0, 0.0, 0.0, 1.744927765803753E9, 0.0, 2025-04-17 18:09:25.803
152.0, 8149.08840049367, 2649.8887121544735, 514.5595091056239, 12589.128326073685, 10484.823344328803, 10511.645437675172, 13847.129207507278, 13527.879241452127, 12918.525984111546, 17752.31424001625, 14793.032681111417, 13171.570083090077, 15241.073398718048, 18626.178041240935, 14442.982011196855, 187500.0, 0.034, 0.032, 0.982, 192.0, 0.0, 0.0, 0.0, 0.0, 0.0, 0.0, 0.0, 0.0, 0.0, 1.744927765809767E9, 0.0, 2025-04-17 18:09:25.809
154.0, 8140.617089345109, 2632.1190753125043, 504.1435961894508, 12576.432535223072, 10474.40743141263, 10503.688216649081, 13842.010658027013, 13521.15136637108, 12916.804899788487, 17747.575670191727, 14788.607035709267, 13166.518588843179, 15241.900413262894, 18621.752395838786, 14445.95479320941, 187500.0, 0.034, 0.032, 0.982, 192.0, 0.0, 0.0, 0.0, 0.0, 0.0, 0.0, 0.0, 0.0, 0.0, 1.744927765817781E9, 0.0, 2025-04-17 18:09:25.817
156.0, 8153.782266829285, 2648.704069698342, 512.9054800159312, 12585.149715560641, 10481.895265805158, 10507.443309717573, 13852.180701754178, 13528.236869363413, 12917.006065488586, 17756.382257507117, 14793.166791578149, 13174.967548247285, 15234.189061425814, 18631.07307327665, 14438.109330905598, 187500.0, 0.034, 0.032, 0.982, 192.0, 0.0, 0.0, 0.0, 0.0, 0.0, 0.0, 0.0, 0.0, 0.0, 1.744927765825795E9, 0.0, 2025-04-17 18:09:25.825
158.0, 8145.646231847553, 2630.3756392449905, 503.04836071114073, 12578.53359920187, 10464.684422574572, 10498.189687513077, 13847.106855762822, 13522.559526271765, 12919.576516100946, 17752.783626649813, 14792.429184011125, 13173.84996102452, 15248.985916255227, 18629.84372733161, 14447.251194387818, 187500.0, 0.034, 0.032, 0.982, 192.0, 0.5, 8.0, 0.5, 0.0, 15.0, 88.0, 0.0, 0.0, 0.0, 1.744927765833781E9, 0.0, 2025-04-17 18:09:25.833
160.0, 8150.697726094452, 2643.294947540158, 512.3019829156378, 12583.808610893324, 10479.168352981611, 10503.040016059878, 13850.97370755359, 13530.650857764585, 12920.157661456784, 17756.628126696127, 14790.283416543416, 13176.42041163688, 15245.856672031483, 18632.21301224387, 14445.664220531491, 187500.0, 0.034, 0.032, 0.982, 192.0, 0.0, 0.0, 0.0, 0.0, 0.0, 0.0, 0.0, 0.0, 0.0, 1.744927765840891E9, 0.0, 2025-04-17 18:09:25.840
162.0, 8139.387743400067, 2635.002450347239, 505.1270729454843, 12577.795991634846, 10473.803934312336, 10501.117766036721, 13841.78714058246, 13526.940468185005, 12921.968152757663, 17748.872071370133, 14784.78488740741, 13177.783868048653, 15247.264831932169, 18624.814584829164, 14449.32990662216, 187500.0, 0.034, 0.032, 0.982, 192.0, 0.0, 0.0, 0.0, 0.0, 0.0, 0.0, 0.0, 0.0, 0.0, 1.744927765849966E9, 0.0, 2025-04-17 18:09:25.849
164.0, 8146.9873365148715, 2641.7303254282865, 510.62560208148983, 12585.753212660935, 10478.721318092505, 10503.218830015521, 13846.749227851538, 13532.908383954571, 12919.84473703441, 17753.387123750108, 14792.07155609984, 13175.079306969561, 15238.525299850144, 18626.826241830142, 14443.09376991913, 187500.0, 0.034, 0.032, 0.982, 192.0, 0.0, 0.0, 0.0, 0.0, 0.0, 0.0, 0.0, 0.0, 0.0, 1.744927765857965E9, 0.0, 2025-04-17 18:09:25.857
166.0, 8143.65692659103, 2642.266767295214, 507.1387299464619, 12586.06613708331, 10483.415184428119, 10507.867992862224, 13842.323582449388, 13531.991962431905, 12921.40935914628, 17753.7894551503, 14800.40875678167, 13181.673071583877, 15255.69143959182, 18628.703788364386, 14461.176331183475, 187500.0, 0.034, 0.032, 0.982, 192.0, 0.0, 0.0, 0.0, 0.0, 0.0, 0.0, 0.0, 0.0, 0.0, 1.744927765867049E9, 0.0, 2025-04-17 18:09:25.867
168.0, 8150.228339460891, 2645.0607353521273, 510.2679741702049, 12592.72695693099, 10491.618274643217, 10514.305295265352, 13846.07867551788, 13532.975439187938, 12916.469623621659, 17759.064466841755, 14799.134707347717, 13178.365013404491, 15247.935384265827, 18629.508451164776, 14453.107351435108, 187500.0, 0.034, 0.032, 0.98, 192.0, 0.5, 8.0, 0.5, 0.0, 15.0, 72.0, 0.0, 0.0, 0.0, 1.744927765875071E9, 0.0, 2025-04-17 18:09:25.875
170.0, 8146.94263302596, 2643.1831888178813, 508.03279972467425, 12590.648244696647, 10485.806821084836, 10514.707626665548, 13843.664687116705, 13532.997790932393, 12920.381178901336, 17758.237452296908, 14812.098719131794, 13186.098716986027, 15264.162750740381, 18632.749454110795, 14466.808970786211, 187500.0, 0.034, 0.032, 0.98, 192.0, 0.0, 0.0, 0.0, 0.0, 0.0, 0.0, 0.0, 0.0, 0.0, 1.744927765883163E9, 0.0, 2025-04-17 18:09:25.883
172.0, 8148.864883049117, 2647.139447586471, 510.8491195260429, 12592.30227378634, 10484.286902461876, 10512.785376642392, 13842.636506871762, 13530.226174619935, 12914.189745687218, 17754.70587667297, 14793.859695656265, 13171.74889704572, 15240.738122551218, 18625.775709840742, 14450.089865933642, 187500.0, 0.034, 0.032, 0.98, 192.0, 0.0, 0.0, 0.0, 0.0, 0.0, 0.0, 0.0, 0.0, 0.0, 1.744927765890183E9, 0.0, 2025-04-17 18:09:25.890
174.0, 8148.3954964155555, 2643.943148129362, 510.64795382594514, 12592.190515064063, 10482.275245460898, 10511.354864997253, 13843.709390605616, 13529.779139730828, 12918.12365271135, 17755.2423185399, 14800.02877712593, 13174.185237191348, 15251.712829078775, 18622.82527957264, 14457.398886370527, 187500.0, 0.034, 0.032, 0.98, 192.0, 0.0, 0.0, 0.0, 0.0, 0.0, 0.0, 0.0, 0.0, 0.0, 1.744927765897182E9, 0.0, 2025-04-17 18:09:25.897
176.0, 8145.713287080919, 2645.775991174697, 507.8316340245765, 12585.909674872122, 10478.83307681478, 10505.901039350158, 13845.721047606594, 13529.063883908259, 12915.061463720975, 17750.973135348933, 14804.543829505901, 13166.116257442984, 15235.150186437391, 18622.422948172447, 14438.9586971949, 187500.0, 0.034, 0.032, 0.98, 192.0, 0.0, 0.0, 0.0, 0.0, 0.0, 0.0, 0.0, 0.0, 0.0, 1.744927765906172E9, 0.0, 2025-04-17 18:09:25.906
178.0, 8148.529606882287, 2642.624395206499, 508.70335205833345, 12590.335320274273, 10482.31994894981, 10510.527850452407, 13848.716181363605, 13528.77331123034, 12921.118786468362, 17750.548452204283, 14786.349509519281, 13174.22994068026, 15249.723523822251, 18622.78057608373, 14454.962546224899, 187500.0, 0.031, 0.03, 0.978, 192.0, 0.0, 112.0, 0.0, 112.0, 15.0, 64.0, 0.0, 0.0, 0.0, 1.744927765913249E9, 0.0, 2025-04-17 18:09:25.913
180.0, 8145.08743823617, 2630.6662119229095, 505.61881132350106, 12584.255645782428, 10471.41229765562, 10503.643513160172, 13845.698695862138, 13520.68197973752, 12916.111995710373, 17746.972173091435, 14776.023003580929, 13171.547731345623, 15235.865442259961, 18621.21595397186, 14436.276487860261, 187500.0, 0.031, 0.03, 0.978, 192.0, 0.0, 0.0, 0.0, 0.0, 0.0, 0.0, 0.0, 0.0, 0.0, 1.744927765921276E9, 0.0, 2025-04-17 18:09:25.921
182.0, 8148.015516759815, 2637.7293631707867, 511.05028522614066, 12588.077794084287, 10474.921521535101, 10507.040978317378, 13844.849329572837, 13524.280610594824, 12919.800033545498, 17749.09558881469, 14783.108506573262, 13175.503990114212, 15240.380494639934, 18621.126546994037, 14442.222051885374, 187500.0, 0.031, 0.03, 0.978, 192.0, 0.0, 0.0, 0.0, 0.0, 0.0, 0.0, 0.0, 0.0, 0.0, 1.744927765929314E9, 0.0, 2025-04-17 18:09:25.929
184.0, 8139.499502122343, 2627.0452293211497, 505.95408749033066, 12584.926198116089, 10469.758268565925, 10504.962266083034, 13834.992210268047, 13520.614924504152, 12912.379254386336, 17741.875975355622, 14777.140590803694, 13154.180425903849, 15227.10355843348, 18609.07895673263, 14436.56706053818, 187500.0, 0.031, 0.03, 0.978, 192.0, 0.0, 0.0, 0.0, 0.0, 0.0, 0.0, 0.0, 0.0, 0.0, 1.744927765938334E9, 0.0, 2025-04-17 18:09:25.938
186.0, 8149.826008060695, 2644.9489766298507, 514.7383230612663, 12599.879515156688, 10486.633835629682, 10516.160490055143, 13839.842538814848, 13526.314619340255, 12915.955533499186, 17755.354077262175, 14802.219248082549, 13158.27079513917, 15228.645828800898, 18610.665930588955, 14443.853729230612, 187500.0, 0.031, 0.03, 0.978, 192.0, 0.0, 0.0, 0.0, 0.0, 0.0, 0.0, 0.0, 0.0, 0.0, 1.744927765945449E9, 0.0, 2025-04-17 18:09:25.945
188.0, 8142.338173668168, 2634.2871945246693, 504.4341688673698, 12589.932988874078, 10477.022585513902, 10507.577420184305, 13838.1661579807, 13526.001694917883, 12913.675655564744, 17755.108208073165, 14792.49623924449, 13159.723658528765, 15230.813948013061, 18611.984683511815, 14438.33284835015, 187500.0, 0.0295, 0.03, 0.979, 192.0, 0.0, 112.0, 0.0, 120.0, 15.0, 80.0, 0.0, 0.0, 0.0, 1.744927765955398E9, 0.0, 2025-04-17 18:09:25.955
190.0, 8151.61414761712, 2645.9995086192503, 513.0619422271183, 12597.711395944525, 10484.577475139795, 10514.640571432183, 13846.45865517362, 13536.01527643386, 12919.956495756685, 17763.020725610342, 14793.435012511614, 13184.377632662969, 15251.623422100953, 18622.288837705713, 14453.822607257678, 187500.0, 0.0295, 0.03, 0.979, 192.0, 0.0, 0.0, 0.0, 0.0, 0.0, 0.0, 0.0, 0.0, 0.0, 1.744927765963473E9, 0.0, 2025-04-17 18:09:25.963
192.0, 8141.332345167679, 2631.515578212211, 504.52357584519103, 12584.814439393813, 10471.59111161126, 10504.023492815912, 13840.513091148507, 13526.292267595802, 12915.419091632259, 17757.186920307508, 14788.942311876097, 13177.537998859645, 15245.946079009305, 18622.62411387254, 14445.32894436466, 187500.0, 0.0295, 0.03, 0.979, 192.0, 0.0, 0.0, 0.0, 0.0, 0.0, 0.0, 0.0, 0.0, 0.0, 1.744927765970484E9, 0.0, 2025-04-17 18:09:25.970
194.0, 8149.893063294061, 2644.099610340549, 513.91130851642, 12591.877590641689, 10474.765059323914, 10506.102205050256, 13847.710352863116, 13530.941430442504, 12918.12365271135, 17757.9915831079, 14790.55163747688, 13182.65654833991, 15244.91789876436, 18626.40155868549, 14444.278412375263, 187500.0, 0.0295, 0.03, 0.979, 192.0, 0.0, 0.0, 0.0, 0.0, 0.0, 0.0, 0.0, 0.0, 0.0, 1.744927765977517E9, 0.0, 2025-04-17 18:09:25.977
196.0, 8139.141874211058, 2630.1074183115265, 502.5342705886687, 12576.119610800697, 10461.68928881756, 10493.182896755088, 13840.758960337516, 13523.118319883148, 12916.089643965917, 17752.873033627635, 14790.529285732424, 13177.448591881823, 15241.140453951413, 18620.5454016382, 14442.24440362983, 187500.0, 0.0295, 0.03, 0.979, 192.0, 0.0, 0.0, 0.0, 0.0, 0.0, 0.0, 0.0, 0.0, 0.0, 1.744927765985546E9, 0.0, 2025-04-17 18:09:25.985
198.0, 8148.5072551378325, 2647.3182615421133, 510.71500905931106, 12583.540389959859, 10473.401602912141, 10498.279094490897, 13846.726876107083, 13526.20286061798, 12917.140175955317, 17755.957574362466, 14787.757669419965, 13176.398059892424, 15242.392151640912, 18620.92538129394, 14443.071418174675, 187500.0, 0.03075, 0.033, 0.9795, 192.0, 0.5, 0.0, 0.5, 16.0, 15.0, 80.0, 0.0, 0.0, 0.0, 1.744927765993597E9, 0.0, 2025-04-17 18:09:25.993
200.0, 8138.56072885522, 2633.6613456799205, 500.45555835432515, 12574.085602055264, 10466.494913875451, 10493.36171071073, 13841.585974882362, 13515.67518897953, 12915.597905587902, 17751.08489407121, 14782.013271094951, 13171.123048200972, 15233.742026536707, 18618.265523703758, 14434.66716225948, 187500.0, 0.03075, 0.033, 0.9795, 192.0, 0.0, 0.0, 0.0, 0.0, 0.0, 0.0, 0.0, 0.0, 0.0, 1.744927766000645E9, 0.0, 2025-04-17 18:09:26.000
202.0, 8151.904720295039, 2639.718668427309, 512.4360933823697, 12585.306177771829, 10479.660091359627, 10503.17412652661, 13849.319678463899, 13520.43611054851, 12915.732016054633, 17757.209272051965, 14788.182352564616, 13173.648795324421, 15233.429102114333, 18623.16055573947, 14433.99660992582, 187500.0, 0.03075, 0.033, 0.9795, 192.0, 0.0, 0.0, 0.0, 0.0, 0.0, 0.0, 0.0, 0.0, 0.0, 1.744927766009658E9, 0.0, 2025-04-17 18:09:26.009
204.0, 8145.847397547651, 2629.570976444599, 505.104721201029, 12582.221637036997, 10474.921521535101, 10503.844678860269, 13842.45769291612, 13515.496375023888, 12914.435614876225, 17756.382257507117, 14789.881085143219, 13172.352394146013, 15236.78186378263, 18622.646465617, 14441.95383095191, 187500.0, 0.03075, 0.033, 0.9795, 192.0, 0.0, 0.0, 0.0, 0.0, 0.0, 0.0, 0.0, 0.0, 0.0, 1.744927766017709E9, 0.0, 2025-04-17 18:09:26.017
206.0, 8156.732697097385, 2640.2774620386913, 513.5313288606798, 12594.425689509593, 10484.108088506233, 10512.181879542099, 13849.1185127638, 13524.034741405814, 12913.228620675638, 17763.80303666628, 14785.20957055206, 13175.816914536586, 15244.739084808718, 18626.49096566331, 14445.977144953866, 187500.0, 0.03075, 0.033, 0.9795, 192.0, 0.0, 0.0, 0.0, 0.0, 0.0, 0.0, 0.0, 0.0, 0.0, 1.744927766025741E9, 0.0, 2025-04-17 18:09:26.025
208.0, 8148.820179560206, 2636.611775948021, 507.27284041319376, 12592.548142975349, 10480.64356811566, 10513.433577231595, 13840.222518470588, 13518.022122147337, 12913.742710798111, 17760.80790290927, 14793.703233445078, 13177.314481415091, 15245.2978784201, 18627.183869741424, 14446.155958909507, 187500.0, 0.032375, 0.0345, 0.98175, 192.0, 0.5, 8.0, 0.5, 16.0, 15.0, 96.0, 0.0, 0.0, 0.0, 1.744927766034796E9, 0.0, 2025-04-17 18:09:26.034
210.0, 8155.548054641254, 2639.4057440049346, 515.297116672649, 12600.68417795708, 10486.387966440674, 10516.831042388803, 13843.619983627796, 13525.085273395214, 12910.725225296645, 17764.04890585529, 14783.01909959544, 13173.090001713039, 15244.023828986148, 18629.463747675865, 14443.518453063782, 187500.0, 0.032375, 0.0345, 0.98175, 192.0, 0.0, 0.0, 0.0, 0.0, 0.0, 0.0, 0.0, 0.0, 0.0, 1.744927766042851E9, 0.0, 2025-04-17 18:09:26.042
212.0, 8145.199196958447, 2635.4718369808006, 508.97157299179713, 12595.252704054441, 10485.046861773357, 10514.819385387826, 13838.188509725156, 13520.592572759697, 12913.116861953362, 17761.769027920847, 14795.938407890608, 13178.208551193304, 15248.784750555129, 18628.524974408745, 14448.704057777413, 187500.0, 0.032375, 0.0345, 0.98175, 192.0, 0.0, 0.0, 0.0, 0.0, 0.0, 0.0, 0.0, 0.0, 0.0, 1.744927766050871E9, 0.0, 2025-04-17 18:09:26.050
214.0, 8146.607356859131, 2644.9489766298507, 513.4642736273138, 12596.213829066019, 10489.427803686596, 10516.249897032965, 13839.574317881385, 13527.67807575203, 12909.898210751799, 17758.416266252552, 14793.725585189533, 13175.638100580944, 15236.088959704515, 18624.479308662332, 14439.316325106183, 187500.0, 0.032375, 0.0345, 0.98175, 192.0, 0.0, 0.0, 0.0, 0.0, 0.0, 0.0, 0.0, 0.0, 0.0, 1.744927766056885E9, 0.0, 2025-04-17 18:09:26.056
216.0, 8139.633612589075, 2642.289119039669, 508.9045177584312, 12592.458735997527, 10481.157658238133, 10514.528812709907, 13836.445073657642, 13526.851061207184, 12914.010931731575, 17753.40947549456, 14802.17454459364, 13176.018080236683, 15242.392151640912, 18622.19943072789, 14447.787636254745, 187500.0, 0.032375, 0.0345, 0.98175, 192.0, 0.0, 0.0, 0.0, 0.0, 0.0, 0.0, 0.0, 0.0, 0.0, 1.744927766065007E9, 0.0, 2025-04-17 18:09:26.065
218.0, 8143.411057402022, 2647.675889453398, 511.8996515154424, 12594.49274474296, 10493.629931644195, 10517.233373788999, 13841.138939993256, 13527.275744351835, 12910.099376451895, 17753.431827239016, 14799.090003858806, 13169.714888300286, 15239.01703822816, 18620.97008478285, 14441.082112918153, 187500.0, 0.0341875, 0.035250000000000004, 0.983875, 192.0, 0.5, 16.0, 0.5, 16.0, 15.0, 104.0, 0.0, 0.0, 0.0, 1.74492776607401E9, 0.0, 2025-04-17 18:09:26.074
220.0, 8141.08647597867, 2639.9868893607727, 507.4069508799256, 12589.06127084032, 10488.623140886206, 10514.394702243175, 13841.630678371273, 13525.688770495508, 12915.776719543544, 17751.733094660412, 14805.840230684309, 13177.158019203904, 15244.537919108621, 18624.50166040679, 14453.219110157384, 187500.0, 0.0341875, 0.035250000000000004, 0.983875, 192.0, 0.0, 0.0, 0.0, 0.0, 0.0, 0.0, 0.0, 0.0, 0.0, 1.744927766081001E9, 0.0, 2025-04-17 18:09:26.081
222.0, 8142.271118434802, 2646.1112673415264, 505.7752735346882, 12585.909674872122, 10485.225675728998, 10508.739710895981, 13844.64816387274, 13526.471081551443, 12912.401606130792, 17747.8885946141, 14793.457364256068, 13166.585644076544, 15229.338732879012, 18620.277180704736, 14437.863461716588, 187500.0, 0.0341875, 0.035250000000000004, 0.983875, 192.0, 0.0, 0.0, 0.0, 0.0, 0.0, 0.0, 0.0, 0.0, 0.0, 1.744927766089031E9, 0.0, 2025-04-17 18:09:26.089
224.0, 8143.902795780039, 2641.7973806616524, 506.3340671460709, 12587.273131283895, 10480.621216371204, 10506.951571339558, 13845.274012717487, 13525.174680373035, 12918.861260278376, 17752.31424001625, 14797.793602680398, 13176.398059892424, 15245.58845109802, 18624.859288318075, 14446.737104265345, 187500.0, 0.0341875, 0.035250000000000004, 0.983875, 192.0, 0.0, 0.0, 0.0, 0.0, 0.0, 0.0, 0.0, 0.0, 0.0, 1.744927766097134E9, 0.0, 2025-04-17 18:09:26.097
226.0, 8147.702592337441, 2634.3318980135796, 505.19412817885024, 12591.184686563574, 10481.26941696041, 10508.091510306778, 13847.397428440741, 13520.369055315145, 12912.6474753198, 17752.269536527343, 14789.054070598373, 13166.786809776642, 15232.177404424836, 18621.931209794428, 14432.834319214144, 187500.0, 0.0341875, 0.035250000000000004, 0.983875, 192.0, 0.0, 0.0, 0.0, 0.0, 0.0, 0.0, 0.0, 0.0, 0.0, 1.744927766105125E9, 0.0, 2025-04-17 18:09:26.105
228.0, 8155.27983370779, 2640.5680347166103, 510.40208463693676, 12596.30323604384, 10486.253855973942, 10514.059426076345, 13851.286631975965, 13524.928811184027, 12917.050768977497, 17763.758333177368, 14804.990864395008, 13179.326138416069, 15245.253174931191, 18633.5988204001, 14446.401828098516, 187500.0, 0.034093750000000006, 0.031625, 0.9849375, 192.0, 0.5, 8.0, 0.0, 112.0, 15.0, 104.0, 0.0, 0.0, 0.0, 1.744927766114172E9, 0.0, 2025-04-17 18:09:26.114
230.0, 8157.000918030849, 2632.096723568049, 507.65282006893403, 12595.140945332163, 10478.363690181219, 10509.11969055172, 13849.230271486078, 13518.491508780899, 12911.440481119214, 17763.490112243904, 14796.40779452417, 13173.84996102452, 15242.369799896456, 18632.570640155154, 14437.595240783125, 187500.0, 0.034093750000000006, 0.031625, 0.9849375, 192.0, 0.0, 0.0, 0.0, 0.0, 0.0, 0.0, 0.0, 0.0, 0.0, 1.744927766122195E9, 0.0, 2025-04-17 18:09:26.122
232.0, 8163.974662300905, 2634.0860288245713, 512.9278317603864, 12601.77941343539, 10481.291768704865, 10513.522984209418, 13853.588861654862, 13523.543003027798, 12915.083815465428, 17775.00126063839, 14798.911189903163, 13183.08123148456, 15247.734218565729, 18642.092483293116, 14442.378514096561, 187500.0, 0.034093750000000006, 0.031625, 0.9849375, 192.0, 0.0, 0.0, 0.0, 0.0, 0.0, 0.0, 0.0, 0.0, 0.0, 1.744927766131236E9, 0.0, 2025-04-17 18:09:26.131
234.0, 8154.542226140765, 2623.3124879971133, 504.88120375647594, 12592.749308675446, 10471.524056377895, 10506.79510912837, 13847.375076696288, 13517.776252958329, 12911.351074141392, 17769.7933041803, 14789.299939787381, 13171.860655767996, 15238.860576016972, 18636.59395415711, 14436.47765356036, 187500.0, 0.034093750000000006, 0.031625, 0.9849375, 192.0, 0.0, 0.0, 0.0, 0.0, 0.0, 0.0, 0.0, 0.0, 0.0, 1.744927766137258E9, 0.0, 2025-04-17 18:09:26.137
236.0, 8158.811409331729, 2637.7293631707867, 515.3418201615597, 12602.025282624398, 10483.303425705843, 10518.015684844933, 13850.07963777538, 13525.174680373035, 12915.709664310178, 17775.537702505317, 14794.55259973438, 13179.28143492716, 15245.253174931191, 18639.387922214024, 14438.489310561337, 187500.0, 0.034093750000000006, 0.031625, 0.9849375, 192.0, 0.0, 0.0, 0.0, 0.0, 0.0, 0.0, 0.0, 0.0, 0.0, 1.7449277661453E9, 0.0, 2025-04-17 18:09:26.145
238.0, 8147.076743492693, 2633.3484212575463, 507.1163782020066, 12593.486916242471, 10476.687309347071, 10513.835908631792, 13843.664687116705, 13521.374883815633, 12911.686350308222, 17767.84870241269, 14790.439878754602, 13170.810123778598, 15237.027732971637, 18635.476366934345, 14436.500005304815, 187500.0, 0.034093750000000006, 0.031625, 0.9849375, 192.0, 0.0, 0.0, 0.0, 0.0, 0.0, 0.0, 0.0, 0.0, 0.0, 1.74492776615535E9, 0.0, 2025-04-17 18:09:26.155
240.0, 8151.792961572763, 2645.708935941331, 516.1017794730401, 12599.723052945501, 10486.298559462854, 10518.552126711862, 13849.990230797557, 13530.516747297854, 12916.290809666016, 17766.909929145568, 14796.676015457633, 13181.896589028429, 15251.712829078775, 18634.179965755935, 14450.246328144829, 187500.0, 0.034, 0.028, 0.984, 192.0, 0.5, 8.0, 0.0, 112.0, 15.0, 96.0, 0.0, 0.0, 0.0, 1.744927766162376E9, 0.0, 2025-04-17 18:09:26.162
242.0, 8138.761894555319, 2636.2317962922807, 506.51288110171333, 12587.720166173001, 10476.955530280535, 10511.55603069735, 13842.033009771469, 13525.219383861946, 12914.010931731575, 17757.589251707705, 14792.920922389141, 13178.610882593499, 15243.599145841497, 18627.58620114162, 14446.267717631785, 187500.0, 0.034, 0.028, 0.984, 192.0, 0.0, 0.0, 0.0, 0.0, 0.0, 0.0, 0.0, 0.0, 0.0, 1.74492776616841E9, 0.0, 2025-04-17 18:09:26.168
244.0, 8149.669545849508, 2650.8274854215965, 516.7946835511545, 12597.06319535532, 10493.920504322114, 10519.51325172344, 13850.101989519835, 13535.948221200493, 12915.12851895434, 17763.579519221727, 14796.027814868428, 13180.220208194281, 15244.87319527545, 18632.861212833075, 14448.81581649969, 187500.0, 0.034, 0.028, 0.984, 192.0, 0.0, 0.0, 0.0, 0.0, 0.0, 0.0, 0.0, 0.0, 0.0, 1.74492776617745E9, 0.0, 2025-04-17 18:09:26.177
246.0, 8140.751199811841, 2641.0150696057167, 506.51288110171333, 12588.368366762206, 10482.163486738622, 10512.472452220018, 13843.93290805017, 13531.209651375968, 12915.284981165527, 17757.790417407803, 14793.792640422898, 13178.119144215483, 15250.327020922545, 18631.967143054862, 14454.850787502623, 187500.0, 0.034, 0.028, 0.984, 192.0, 0.0, 0.0, 0.0, 0.0, 0.0, 0.0, 0.0, 0.0, 0.0, 1.744927766185475E9, 0.0, 2025-04-17 18:09:26.185
248.0, 8157.000918030849, 2643.943148129362, 517.7111050738222, 12604.215753581018, 10494.702815378048, 10524.520042481428, 13852.985364554568, 13530.87437520914, 12916.916658510765, 17765.926452389533, 14807.941294663107, 13181.695423328332, 15249.656468588886, 18637.979762313338, 14453.442627601939, 187500.0, 0.034, 0.028, 0.984, 192.0, 0.0, 0.0, 0.0, 0.0, 0.0, 0.0, 0.0, 0.0, 0.0, 1.74492776619452E9, 0.0, 2025-04-17 18:09:26.194
250.0, 8146.5179498813095, 2640.4339242498786, 508.65864856942284, 12595.29740754335, 10489.36074845323, 10520.94376336858, 13841.943602793646, 13520.123186126137, 12913.183917186729, 17761.009068609364, 14796.586608479813, 13173.42527787987, 15239.128796950436, 18631.4977564213, 14441.596203040624, 187500.0, 0.034, 0.028, 0.988, 192.0, 0.5, 8.0, 0.0, 112.0, 15.0, 112.0, 0.0, 0.0, 0.0, 1.744927766203562E9, 0.0, 2025-04-17 18:09:26.203
252.0, 8159.3254994542, 2642.356174273035, 517.8899190294646, 12603.053462869342, 10495.038091544879, 10523.84949014777, 13851.845425587348, 13522.112491382659, 12912.938047997719, 17765.07708610023, 14796.251332312982, 13174.609920335999, 15234.837262015017, 18633.822337844653, 14438.846938472623, 187500.0, 0.034, 0.028, 0.988, 192.0, 0.0, 0.0, 0.0, 0.0, 0.0, 0.0, 0.0, 0.0, 0.0, 1.744927766210608E9, 0.0, 2025-04-17 18:09:26.210
254.0, 8153.80461857374, 2633.4378282353673, 508.99392473625244, 12595.990311621466, 10481.448230916052, 10516.071083077322, 13847.352724951832, 13516.926886669027, 12912.513364853068, 17764.9429756335, 14791.490410744002, 13175.146362202926, 15236.580698082531, 18632.525936666243, 14434.153072137007, 187500.0, 0.034, 0.028, 0.988, 192.0, 0.0, 0.0, 0.0, 0.0, 0.0, 0.0, 0.0, 0.0, 0.0, 1.744927766218665E9, 0.0, 2025-04-17 18:09:26.218
0.0, 8165.561636157231, 2638.4669707378116, 515.1853579503725, 12606.227410581996, 10485.06921351781, 10518.999161600967, 13853.924137821692, 13521.91132568256, 12911.909867752776, 17768.80982742427, 14794.440841012103, 13172.88883601294, 15233.406750369877, 18636.79511985721, 14435.42712157096, 187500.0, 0.034, 0.028, 0.988, 192.0, 0.0, 0.0, 0.0, 0.0, 0.0, 0.0, 0.0, 0.0, 0.0, 1.744927766224696E9, 0.0, 2025-04-17 18:09:26.224
2.0, 8155.123371496603, 2630.5991566895436, 507.16108169091723, 12596.482049999482, 10478.900132048146, 10513.075949320311, 13849.386733697265, 13521.643104749097, 12916.223754432649, 17763.199539565987, 14790.842210154799, 13174.162885446893, 15243.599145841497, 18631.855384332586, 14445.641868787035, 187500.0, 0.034, 0.028, 0.988, 192.0, 0.0, 0.0, 0.0, 0.0, 0.0, 0.0, 0.0, 0.0, 0.0, 1.744927766233721E9, 0.0, 2025-04-17 18:09:26.233
4.0, 8161.158342499536, 2636.0529823366383, 513.5536806051351, 12602.740538446968, 10486.700890863049, 10517.166318555632, 13855.444056444652, 13524.213555361457, 12915.352036398894, 17765.345307033695, 14786.170695563638, 13174.699327313821, 15239.01703822816, 18633.35295121109, 14440.702133262414, 187500.0, 0.036000000000000004, 0.032, 0.984, 192.0, 0.5, 16.0, 0.5, 0.0, 15.0, 96.0, 0.0, 0.0, 0.0, 1.744927766241737E9, 0.0, 2025-04-17 18:09:26.241
6.0, 8150.720077838908, 2635.4718369808006, 510.08916021456247, 12596.01266336592, 10482.856390816736, 10515.847565632768, 13845.78810283996, 13523.163023372057, 12917.944838755708, 17764.339478533206, 14798.486506758512, 13179.773173305175, 15246.393113898412, 18635.02933204524, 14448.637002544046, 187500.0, 0.036000000000000004, 0.032, 0.984, 192.0, 0.0, 0.0, 0.0, 0.0, 0.0, 0.0, 0.0, 0.0, 0.0, 1.744927766248776E9, 0.0, 2025-04-17 18:09:26.248
8.0, 8153.849322062651, 2639.4504474938453, 514.2912881721602, 12598.806631422834, 10486.49972516295, 10516.94280111108, 13848.716181363605, 13527.901593196582, 12913.005103231086, 17765.52412098934, 14791.937445633108, 13174.878141269463, 15234.658448059376, 18633.084730277627, 14440.076284417664, 187500.0, 0.036000000000000004, 0.032, 0.984, 192.0, 0.0, 0.0, 0.0, 0.0, 0.0, 0.0, 0.0, 0.0, 0.0, 1.74492776625684E9, 0.0, 2025-04-17 18:09:26.256
10.0, 8145.355659169634, 2640.5009794832445, 509.91034625892, 12592.72695693099, 10481.761155338425, 10511.667789419627, 13843.709390605616, 13531.276706609335, 12918.816556789465, 17764.764161677856, 14796.49720150199, 13175.079306969561, 15250.461131389276, 18633.97880005584, 14451.028639200764, 187500.0, 0.036000000000000004, 0.032, 0.984, 192.0, 0.0, 0.0, 0.0, 0.0, 0.0, 0.0, 0.0, 0.0, 0.0, 1.744927766265865E9, 0.0, 2025-04-17 18:09:26.265
12.0, 8148.931938282483, 2638.690488182365, 510.8491195260429, 12596.01266336592, 10483.21401872802, 10511.444271975073, 13845.721047606594, 13530.673209509041, 12914.301504409494, 17762.573690721238, 14791.98214912202, 13168.79846677762, 15238.614706827964, 18626.73683485232, 14441.417389084983, 187500.0, 0.036000000000000004, 0.032, 0.984, 192.0, 0.0, 0.0, 0.0, 0.0, 0.0, 0.0, 0.0, 0.0, 0.0, 1.744927766273907E9, 0.0, 2025-04-17 18:09:26.273
14.0, 8148.015516759815, 2644.5913487185658, 510.4467881258474, 12594.805669165335, 10482.699928605549, 10513.0312458314, 13846.413951684708, 13527.879241452127, 12918.056597477986, 17766.32878378973, 14804.767346950453, 13172.285338912647, 15247.15307320989, 18631.25188723229, 14450.447493844928, 187500.0, 0.034, 0.03, 0.988, 192.0, 0.5, 8.0, 0.0, 120.0, 15.0, 112.0, 0.0, 0.0, 0.0, 1.744927766281933E9, 0.0, 2025-04-17 18:09:26.281
16.0, 8147.99316501536, 2643.6972789403535, 509.1503869474396, 12591.721128430501, 10478.162524481122, 10509.387911485186, 13850.012582542013, 13526.895764696093, 12912.401606130792, 17760.31616453125, 14787.35533801977, 13172.106524957006, 15233.742026536707, 18625.038102273717, 14436.991743682831, 187500.0, 0.034, 0.03, 0.988, 192.0, 0.0, 0.0, 0.0, 0.0, 0.0, 0.0, 0.0, 0.0, 0.0, 1.744927766290967E9, 0.0, 2025-04-17 18:09:26.290
18.0, 8151.301223194746, 2642.937319628873, 511.76554104871053, 12596.906733144133, 10481.001196026946, 10512.31599000883, 13852.180701754178, 13529.935601942016, 12921.588173101924, 17769.212158824463, 14806.35432080678, 13189.697347843332, 15253.836244802029, 18635.252849489792, 14447.228842643362, 187500.0, 0.034, 0.03, 0.988, 192.0, 0.0, 0.0, 0.0, 0.0, 0.0, 0.0, 0.0, 0.0, 0.0, 1.74492776629808E9, 0.0, 2025-04-17 18:09:26.298
