%OpenBCI Raw EXG Data
%Number of channels = 16
%Sample Rate = 125 Hz
%Board = OpenBCI_GUI$BoardCytonSerialDaisy
Sample Index, EXG Channel 0, EXG Channel 1, EXG Channel 2, EXG Channel 3, EXG Channel 4, EXG Channel 5, EXG Channel 6, EXG Channel 7, EXG Channel 8, EXG Channel 9, EXG Channel 10, EXG Channel 11, EXG Channel 12, EXG Channel 13, EXG Channel 14, EXG Channel 15, Accel Channel 0, Accel Channel 1, Accel Channel 2, Not Used, Digital Channel 0 (D11), Digital Channel 1 (D12), Digital Channel 2 (D13), Digital Channel 3 (D17), Not Used, Digital Channel 4 (D18), Analog Channel 0, Analog Channel 1, Analog Channel 2, Timestamp, Marker Channel, Timestamp (Formatted)
0.0, -10013.715626444297, -10072.835990528583, -7413.805414891889, -718.608584238122, -2471.8123640790423, -3916.3162012477164, -1586.1915452708656, -1446.1131627694563, -10194.183611176446, -4957.147533553545, 1615.181757829399, 1218.6171077033412, 2205.021942260497, -2665.5572850176436, 1286.3428934029214, 2833.508292854821, 0.0, 0.0, 0.0, 193.0, 0.0, 1.0, 1.0, 0.0, 0.0, 1.0, 1.0, 256.0, 1.0, 1.739490186902452E9, 0.0, 2025-02-13 18:43:06.902
2.0, -20016.411842872127, -20130.98688495003, -14803.023910882941, -1405.477691349708, -4922.569384881185, -7802.323437014036, -3145.6057006842734, -2867.7064618714408, -20165.632088855757, -8767.650576549839, 3666.1331255594646, 2761.759193153285, 4202.30677155337, -4801.8699648225265, 2505.943477862296, 4639.73041054373, 0.0, 0.0, 0.0, 193.0, 0.0, 1.0, 1.0, 0.0, 0.0, 1.0, 1.0, 256.0, 1.0, 1.739490186908485E9, 0.0, 2025-02-13 18:43:06.908
4.0, -20029.554668611847, -20149.248260170014, -14819.608905268778, -1433.1715027298335, -4942.127161279579, -7833.50412052919, -3161.967177625558, -2886.3254650027116, -20152.109283460293, -8754.485399065661, 3672.9951111072437, 2766.408355999989, 4210.755730957476, -4791.230534461801, 2491.236030010704, 4639.864521010461, 0.0, 0.0, 0.0, 193.0, 0.0, 1.0, 1.0, 0.0, 0.0, 1.0, 1.0, 256.0, 1.0, 1.73949018691552E9, 0.0, 2025-02-13 18:43:06.915
6.0, -20016.165973683117, -20126.203611636593, -14806.466079529058, -1406.997609972669, -4921.9658877808915, -7806.011474849162, -3151.0595263313685, -2866.7229851154075, -20174.818655826886, -8773.30556789703, 3660.4557824678163, 2756.350070995101, 4198.0375883624065, -4810.85536609356, 2496.8239661245307, 4627.705172026775, 0.0, 0.0, 0.0, 193.0, 0.0, 1.0, 1.0, 0.0, 0.0, 1.0, 1.0, 256.0, 1.0, 1.73949018692454E9, 0.0, 2025-02-13 18:43:06.924
8.0, -20025.084319720783, -20143.928544989652, -14823.11812914826, -1436.2336917202106, -4941.948347323936, -7834.353486818492, -3172.718366708561, -2886.9960173363706, -20163.12869347676, -8765.840085248958, 3675.0961750860424, 2767.0789083336485, 4209.526385012435, -4801.467633422331, 2484.8210793520307, 4616.372837587934, 0.0, 0.0, 0.0, 193.0, 0.0, 1.0, 1.0, 0.0, 0.0, 1.0, 1.0, 256.0, 1.0, 1.739490186931653E9, 0.0, 2025-02-13 18:43:06.931
10.0, -20018.71407255102, -20131.009236694485, -14815.116204633261, -1411.6244210749176, -4924.044600015235, -7811.018265607151, -3166.8622096612708, -2870.5898369061756, -20176.405629683213, -8785.710786069725, 3656.0971922990316, 2750.7621348812745, 4191.779099914921, -4820.824244120628, 2487.257419497659, 4618.451549822277, 0.0, 0.0, 0.0, 193.0, 0.0, 1.0, 1.0, 0.0, 0.0, 1.0, 1.0, 256.0, 1.0, 1.739490186939733E9, 0.0, 2025-02-13 18:43:06.939
12.0, -20027.878287777698, -20146.78956827993, -14828.683713517632, -1434.0208690191353, -4941.4566089459195, -7832.721809473254, -3178.552172011396, -2885.6549126690525, -20163.329859176858, -8767.650576549839, 3680.9746838777883, 2772.3315682806456, 4211.873318180242, -4797.712540353839, 2504.915297617352, 4618.160977144358, 0.0, 0.0, 0.0, 193.0, 0.0, 1.0, 1.0, 0.0, 0.0, 1.0, 1.0, 256.0, 1.0, 1.739490186948655E9, 0.0, 2025-02-13 18:43:06.948
14.0, -20017.887058006174, -20129.958704705085, -14816.971399423051, -1414.4407408762863, -4924.424579670976, -7808.380759761425, -3165.9234363941478, -2871.2603892398347, -20173.23168197056, -8786.537800614573, 3647.089439283543, 2747.901111590995, 4190.616809203245, -4816.443302207387, 2487.0562537975616, 4611.880136952417, 0.0, 0.0, 0.0, 193.0, 0.0, 1.0, 1.0, 0.0, 0.0, 1.0, 1.0, 256.0, 1.0, 1.73949018695677E9, 0.0, 2025-02-13 18:43:06.956
16.0, -20021.373930141202, -20133.311466373383, -14826.359132094281, -1428.7011538387721, -4932.538262908252, -7817.902602899386, -3174.5288580094407, -2880.938694588983, -20147.437768869135, -8763.0684689365, 3676.213762308808, 2769.828172901651, 4216.589536260311, -4782.312188424134, 2478.808460093553, 4625.492349325699, 0.0, 0.0, 0.0, 193.0, 0.0, 1.0, 1.0, 0.0, 0.0, 1.0, 1.0, 256.0, 1.0, 1.739490186963762E9, 0.0, 2025-02-13 18:43:06.963
18.0, -20025.553706354345, -20135.27841988545, -14822.581687281334, -1419.9169182678365, -4931.018344285291, -7815.846242409497, -3169.589122484818, -2875.730738130896, -20169.007202268505, -8782.179210445787, 3649.6598898959032, 2748.6163674135646, 4194.662474949655, -4802.898145067471, 2501.294315015592, 4629.113331927459, 0.0, 0.0, 0.0, 193.0, 0.0, 1.0, 1.0, 0.0, 0.0, 1.0, 1.0, 256.0, 1.0, 1.739490186971794E9, 0.0, 2025-02-13 18:43:06.971
20.0, -20014.981331226987, -20132.752672762, -14816.256143600482, -1421.8838717799035, -4929.207852984411, -7813.141681330405, -3161.140163080712, -2878.055319554248, -20155.79732129542, -8750.283271108065, 3693.5587160061264, 2780.8475829181175, 4219.092931639306, -4787.318979182122, 2524.5177775046564, 4628.129855171425, 0.0, 0.0, 0.0, 193.0, 0.0, 1.0, 1.0, 0.0, 0.0, 1.0, 1.0, 256.0, 1.0, 1.739490186980865E9, 0.0, 2025-02-13 18:43:06.980
22.0, -20020.59161908527, -20134.18318440714, -14818.31250409037, -1417.8829095224035, -4924.02224827078, -7809.699512684288, -3162.4589160035753, -2875.8648485976278, -20167.95667027911, -8771.87505625189, 3653.638500408948, 2745.73299237883, 4190.929733625619, -4808.977819559314, 2503.261268527659, 4615.858747465461, 0.0, 0.0, 0.0, 193.0, 0.0, 1.0, 1.0, 0.0, 0.0, 1.0, 1.0, 256.0, 1.0, 1.739490186987892E9, 0.0, 2025-02-13 18:43:06.987
24.0, -20020.256342918437, -20132.37269310626, -14818.468966301558, -1419.0675519785348, -4923.016419770292, -7808.581925461523, -3163.9564828820808, -2874.9484270749604, -20151.28226891545, -8756.519407811094, 3686.607323480526, 2777.2042485719026, 4220.054056650884, -4783.921514024915, 2506.837547640508, 4650.101619970992, 0.0, 0.0, 0.0, 193.0, 0.0, 1.0, 1.0, 0.0, 0.0, 1.0, 1.0, 256.0, 1.0, 1.739490186995944E9, 0.0, 2025-02-13 18:43:06.995
26.0, -20019.876363262698, -20135.926620474653, -14819.363036079769, -1421.6827060798057, -4926.8385680721485, -7817.321457543548, -3167.2868928059215, -2878.703520143452, -20171.018859269483, -8785.97900700319, 3645.591872405037, 2743.810742355674, 4189.365111513747, -4810.09540678208, 2485.938666574796, 4625.402942347878, 0.0, 0.0, 0.0, 193.0, 0.0, 1.0, 1.0, 0.0, 0.0, 1.0, 1.0, 256.0, 1.0, 1.739490187003978E9, 0.0, 2025-02-13 18:43:07.003
28.0, -20013.863744004222, -20133.155004162196, -14812.12107087625, -1414.127816453912, -4923.329344192665, -7810.705341184776, -3161.676604947639, -2872.3556247181446, -20158.61364109679, -8766.242416649153, 3677.2866460426626, 2771.638664202531, 4211.0686553798505, -4797.37726418701, 2487.2797712421147, 4630.007401705671, 0.0, 0.0, 0.0, 193.0, 0.0, 1.0, 1.0, 0.0, 0.0, 1.0, 1.0, 256.0, 1.0, 1.739490187011971E9, 0.0, 2025-02-13 18:43:07.011
30.0, -20029.95700001204, -20140.396969365713, -14833.422283342157, -1436.8148370760487, -4934.8181408426935, -7822.864690168463, -3182.8660586912706, -2884.0008835793597, -20171.287080202947, -8792.058681495033, 3637.0311542786544, 2743.5872249111208, 4192.069672592839, -4813.224651005823, 2467.699643099266, 4635.260061652668, 0.0, 0.0, 0.0, 193.0, 0.0, 1.0, 1.0, 0.0, 0.0, 1.0, 1.0, 256.0, 1.0, 1.73949018701901E9, 0.0, 2025-02-13 18:43:07.019
32.0, -20023.542049353367, -20133.758501262488, -14823.073425659351, -1425.0801712370123, -4926.011553527303, -7808.581925461523, -3169.72323295155, -2871.1039270286474, -20158.926565519163, -8768.857570750424, 3678.9183233879003, 2774.4996874928106, 4211.493338524501, -4800.99824678877, 2503.7083034167654, 4617.065741666048, 0.0, 0.0, 0.0, 193.0, 0.0, 1.0, 1.0, 0.0, 0.0, 1.0, 1.0, 256.0, 1.0, 1.739490187028086E9, 0.0, 2025-02-13 18:43:07.028
34.0, -20038.987104771986, -20147.92950724715, -14841.468911346068, -1444.5261889131295, -4941.88129209057, -7832.07360888405, -3190.331541339343, -2885.789023135784, -20168.671926101677, -8788.392995404363, 3649.6822416403584, 2753.3996407270006, 4196.383559272714, -4808.597839903574, 2496.01930332414, 4633.807198263073, 0.0, 0.0, 0.0, 193.0, 0.0, 1.0, 1.0, 0.0, 0.0, 1.0, 1.0, 256.0, 1.0, 1.739490187036084E9, 0.0, 2025-02-13 18:43:07.036
36.0, -20010.66744454711, -20114.4465940531, -14814.937390677618, -1410.3056681520545, -4916.35559992261, -7800.44589047979, -3168.851514917793, -2865.1807147479913, -20157.89838527422, -8774.669024308805, 3676.571390220093, 2773.762079925785, 4213.840271692308, -4797.533726398197, 2504.267097028148, 4631.974355217738, 0.0, 0.0, 0.0, 193.0, 0.0, 1.0, 1.0, 0.0, 0.0, 1.0, 1.0, 256.0, 1.0, 1.739490187044164E9, 0.0, 2025-02-13 18:43:07.044
38.0, -20021.01630222992, -20135.479585585545, -14824.258068115481, -1427.9858980162023, -4928.73846635085, -7819.511928500167, -3173.5230295089523, -2881.7433573893736, -20158.099550974315, -8785.330806413986, 3647.759991617202, 2747.074097046149, 4197.054111606373, -4805.848575335572, 2471.67825361231, 4624.195948147291, 0.0, 0.0, 0.0, 193.0, 0.0, 1.0, 1.0, 0.0, 0.0, 1.0, 1.0, 256.0, 1.0, 1.739490187052134E9, 0.0, 2025-02-13 18:43:07.052
40.0, -20011.91914223661, -20127.58941979282, -14807.829535940831, -1402.3260953815097, -4915.662695844495, -7797.696625911788, -3150.277215275433, -2862.18558099098, -20147.19189968013, -8764.096649181443, 3673.7327186742687, 2765.447230988411, 4205.324257054836, -4793.800985074161, 2498.2097742807596, 4625.671163281341, 0.0, 0.0, 0.0, 193.0, 0.0, 1.0, 1.0, 0.0, 0.0, 1.0, 1.0, 256.0, 1.0, 1.73949018705917E9, 0.0, 2025-02-13 18:43:07.059
42.0, -20022.87149701971, -20143.392103122726, -14824.503937304491, -1426.8683107934369, -4939.4002484560315, -7830.173710605349, -3168.9856253845246, -2883.6432556680747, -20159.75358006401, -8770.533951584572, 3660.7687068901905, 2753.1984750269025, 4194.193088316094, -4807.100273025068, 2498.1650707918493, 4624.732390014218, 0.0, 0.0, 0.0, 193.0, 0.0, 1.0, 1.0, 0.0, 0.0, 1.0, 1.0, 256.0, 1.0, 1.739490187068263E9, 0.0, 2025-02-13 18:43:07.068
44.0, -20007.851124745743, -20122.672036012656, -14808.097756874295, -1400.0238657026132, -4918.456663901408, -7799.440061979301, -3153.6299769437287, -2862.252636224346, -20156.98196375155, -8764.45427709273, 3671.8328203955675, 2759.2110942853806, 4192.472003993035, -4808.933116070404, 2498.5003469586786, 4605.2863723381015, 0.0, 0.0, 0.0, 193.0, 0.0, 1.0, 1.0, 0.0, 0.0, 1.0, 1.0, 256.0, 1.0, 1.739490187076268E9, 0.0, 2025-02-13 18:43:07.076
46.0, -20026.268962176917, -20144.196765923116, -14830.40479784069, -1434.8925870528922, -4942.730658379872, -7833.1241408734495, -3175.8923144212145, -2886.705444658452, -20162.972231265572, -8778.893504010857, 3660.276968512174, 2759.456963474389, 4202.195012831094, -4805.647409635474, 2486.5421636750893, 4642.054991967081, 0.0, 0.0, 0.0, 193.0, 0.0, 1.0, 1.0, 0.0, 0.0, 1.0, 1.0, 256.0, 1.0, 1.739490187083341E9, 0.0, 2025-02-13 18:43:07.083
48.0, -20015.45071786055, -20126.293018614415, -14810.824669697842, -1405.6565053053505, -4917.4508354009195, -7800.1329660574165, -3156.5357037229187, -2863.6831478694858, -20164.51450163299, -8776.323053398497, 3661.7521836462242, 2758.518190207266, 4197.54584998439, -4807.659066636452, 2492.0183410666396, 4625.559404559065, 0.0, 0.0, 0.0, 193.0, 0.0, 1.0, 1.0, 0.0, 0.0, 1.0, 1.0, 256.0, 1.0, 1.739490187091311E9, 0.0, 2025-02-13 18:43:07.091
50.0, -20030.91812502362, -20142.22981241105, -14833.019951941962, -1438.5582731435625, -4936.5839286546625, -7826.440969281312, -3178.932151667136, -2887.3983487365663, -20159.03832424144, -8774.154934186332, 3664.3002825141293, 2760.418088485967, 4201.658570964167, -4802.987552045292, 2492.3089137445586, 4626.341715615001, 0.0, 0.0, 0.0, 193.0, 0.0, 1.0, 1.0, 0.0, 0.0, 1.0, 1.0, 256.0, 1.0, 1.739490187100364E9, 0.0, 2025-02-13 18:43:07.100
52.0, -20025.844279032266, -20134.250239640503, -14818.133690134728, -1414.1725199428226, -4920.0883412466455, -7804.603314948477, -3161.8107154143713, -2864.3984036920556, -20164.760370821998, -8785.531972114084, 3654.5549219316154, 2754.4054692274894, 4193.343722026792, -4811.369456216033, 2481.624779894922, 4623.950078958283, 0.0, 0.0, 0.0, 193.0, 0.0, 1.0, 1.0, 0.0, 0.0, 1.0, 1.0, 256.0, 1.0, 1.739490187108446E9, 0.0, 2025-02-13 18:43:07.108
54.0, -20036.64017160418, -20147.5048241025, -14837.892632233219, -1444.5038371686742, -4936.092190276646, -7826.396265792402, -3180.1838493566333, -2886.4595754694433, -20157.4066468962, -8772.724422541192, 3665.7084424148134, 2762.094469320115, 4201.256239563971, -4804.351008457066, 2486.7880328640977, 4619.837357978507, 0.0, 0.0, 0.0, 193.0, 0.0, 1.0, 1.0, 0.0, 0.0, 1.0, 1.0, 256.0, 1.0, 1.739490187115477E9, 0.0, 2025-02-13 18:43:07.115
56.0, -20026.91716276612, -20139.815824009875, -14822.134652392228, -1419.1346072119006, -4921.6753151029725, -7808.760739417165, -3169.6114742292734, -2866.924150815505, -20162.435789398645, -8787.096594225955, 3647.0670875390874, 2748.4599052023777, 4190.460346992058, -4811.749435871772, 2492.755948633665, 4615.836395721006, 0.0, 0.0, 0.0, 193.0, 0.0, 1.0, 1.0, 0.0, 0.0, 1.0, 1.0, 256.0, 1.0, 1.739490187123528E9, 0.0, 2025-02-13 18:43:07.123
58.0, -20033.376816913704, -20149.002390981008, -14834.025780442451, -1439.832322577515, -4934.125236764578, -7829.056123382584, -3182.7319482245384, -2882.548020189765, -20155.484396873046, -8778.960559244224, 3665.4849249702606, 2766.5201147222656, 4204.340780298803, -4805.312133468644, 2485.5139834301453, 4619.7255992562295, 0.0, 0.0, 0.0, 193.0, 0.0, 1.0, 1.0, 0.0, 0.0, 1.0, 1.0, 256.0, 1.0, 1.739490187132565E9, 0.0, 2025-02-13 18:43:07.132
60.0, -20031.365159912726, -20140.37461762126, -14829.041341428918, -1421.8838717799035, -4923.083475003657, -7809.766567917653, -3175.266465576466, -2867.2370752378793, -20159.66417308619, -8794.897353040857, 3638.1710932458755, 2742.0226027992494, 4182.905457366163, -4813.805796361661, 2461.6646720963327, 4606.180442116313, 0.0, 0.0, 0.0, 193.0, 0.0, 1.0, 1.0, 0.0, 0.0, 1.0, 1.0, 256.0, 1.0, 1.739490187139613E9, 0.0, 2025-02-13 18:43:07.139
62.0, -20042.473976907015, -20154.903251517208, -14842.22887065755, -1444.5261889131295, -4937.343887966143, -7829.257289082681, -3183.715424980572, -2880.916342844527, -20154.880899772754, -8780.614588333916, 3669.1282593164756, 2769.448193245911, 4210.174585601639, -4797.399615931466, 2478.808460093553, 4619.166805644847, 0.0, 0.0, 0.0, 193.0, 0.0, 1.0, 1.0, 0.0, 0.0, 1.0, 1.0, 256.0, 1.0, 1.73949018714764E9, 0.0, 2025-02-13 18:43:07.147
64.0, -20028.615895344723, -20134.98784720753, -14824.638047771223, -1418.866386278437, -4918.54607087923, -7806.726730671732, -3166.526933494441, -2865.605397892642, -20166.302641189413, -8790.98579776118, 3641.1662270028864, 2743.2072452553807, 4181.743166654488, -4817.784406874705, 2481.2000967502713, 4600.48074728021, 0.0, 0.0, 0.0, 193.0, 0.0, 1.0, 1.0, 0.0, 0.0, 1.0, 1.0, 256.0, 1.0, 1.73949018715562E9, 0.0, 2025-02-13 18:43:07.155
66.0, -20017.395319628158, -20126.22596338105, -14820.435919813624, -1421.6156508464398, -4916.757931322805, -7804.35744575947, -3165.6999189495946, -2874.5684474192203, -20146.655457813198, -8772.947939985746, 3670.1340878169644, 2767.1459635670144, 4202.753806442476, -4801.132357255502, 2462.7375558301874, 4606.582773516509, 0.0, 0.0, 0.0, 193.0, 0.0, 1.0, 1.0, 0.0, 0.0, 1.0, 1.0, 256.0, 1.0, 1.739490187163714E9, 0.0, 2025-02-13 18:43:07.163
68.0, -20025.844279032266, -20137.31242863088, -14825.912097205175, -1420.028676990113, -4924.916318048992, -7814.058102853072, -3169.432660273631, -2874.18846776348, -20169.498940646525, -8786.873076781401, 3641.9708898032773, 2742.6484516439978, 4176.915189852141, -4826.680401167918, 2490.5878294215, 4605.86751769394, 0.0, 0.0, 0.0, 193.0, 0.0, 1.0, 1.0, 0.0, 0.0, 1.0, 1.0, 256.0, 1.0, 1.739490187171756E9, 0.0, 2025-02-13 18:43:07.171
70.0, -20027.274790677406, -20136.373655363757, -14829.242507129016, -1426.957717771258, -4925.8997948050255, -7814.996876120195, -3173.679491720139, -2876.2224765089127, -20160.401780653214, -8769.796344017548, 3677.376053020484, 2775.5278677377546, 4208.587611745312, -4804.529822412708, 2489.2467247541817, 4622.564270802053, 0.0, 0.0, 0.0, 193.0, 0.0, 1.0, 1.0, 0.0, 0.0, 1.0, 1.0, 256.0, 1.0, 1.739490187179853E9, 0.0, 2025-02-13 18:43:07.179
72.0, -20033.421520402615, -20145.359056634792, -14832.394103097215, -1425.7283718262163, -4926.436236671953, -7816.405036020879, -3179.5132970229743, -2876.155421275547, -20171.108266247305, -8793.086861739977, 3638.282851968152, 2744.9506813228945, 4187.308751023859, -4819.796063875683, 2479.389605449391, 4624.531224314121, 0.0, 0.0, 0.0, 193.0, 0.0, 1.0, 1.0, 0.0, 0.0, 1.0, 1.0, 256.0, 1.0, 1.73949018718877E9, 0.0, 2025-02-13 18:43:07.188
74.0, -20022.96090399753, -20134.630219296243, -14826.716760005565, -1416.5194531106297, -4917.227317956366, -7806.324399271536, -3175.065299876368, -2871.416851451022, -20156.445521884623, -8773.864361508413, 3673.956236118822, 2772.845658403118, 4208.766425700954, -4800.774729344217, 2484.999893307673, 4622.340753357501, 0.0, 0.0, 0.0, 193.0, 0.0, 1.0, 1.0, 0.0, 0.0, 1.0, 1.0, 256.0, 1.0, 1.739490187194836E9, 0.0, 2025-02-13 18:43:07.194
76.0, -20029.264095933926, -20140.307562387894, -14832.88584147523, -1424.7225433257274, -4925.4304081714645, -7818.930783144329, -3181.3684918127647, -2878.5247061878094, -20171.510597647502, -8796.104347241444, 3641.05446828061, 2745.0847917896263, 4182.436070732602, -4820.466616209343, 2479.6801781273102, 4617.736293999707, 0.0, 0.0, 0.0, 193.0, 0.0, 1.0, 1.0, 0.0, 0.0, 1.0, 1.0, 256.0, 1.0, 1.739490187203825E9, 0.0, 2025-02-13 18:43:07.203
78.0, -20019.026996973396, -20132.618562295265, -14822.849908214797, -1416.3629908994426, -4916.936745278447, -7806.033826593617, -3171.131392852234, -2869.6957671279633, -20159.150082963715, -8774.0208237196, 3678.9630268768105, 2772.3315682806456, 4202.440882020102, -4806.295610224678, 2489.6714078988325, 4606.761587472151, 0.0, 0.0, 0.0, 193.0, 0.0, 1.0, 1.0, 0.0, 0.0, 1.0, 1.0, 256.0, 1.0, 1.739490187211897E9, 0.0, 2025-02-13 18:43:07.211
80.0, -20028.81706104482, -20143.392103122726, -14831.052998429896, -1432.478598651719, -4930.839530329648, -7820.294239556103, -3178.686282478128, -2882.279799256301, -20169.655402857712, -8792.483364639684, 3640.8756543249674, 2745.6659371454643, 4183.039567832896, -4820.265450509244, 2474.8298495805084, 4612.885965452906, 0.0, 0.0, 0.0, 193.0, 0.0, 1.0, 1.0, 0.0, 0.0, 1.0, 1.0, 256.0, 1.0, 1.739490187218938E9, 0.0, 2025-02-13 18:43:07.218
82.0, -20013.841392259765, -20123.78962323542, -14813.842155199309, -1410.3950751298757, -4914.053370243713, -7797.383701489413, -3158.4132502571647, -2865.337176959178, -20152.109283460293, -8774.713727797714, 3673.2856837851627, 2769.582303712643, 4198.30580929587, -4807.346142214077, 2485.603390407967, 4585.90740989535, 0.0, 0.0, 0.0, 193.0, 0.0, 1.0, 1.0, 0.0, 0.0, 1.0, 1.0, 256.0, 1.0, 1.739490187227988E9, 0.0, 2025-02-13 18:43:07.227
84.0, -20028.05710173334, -20138.295905386916, -14829.577783295845, -1431.383363173409, -4929.990164040347, -7819.534280244623, -3179.848573189804, -2882.212744022935, -20160.33472541985, -8793.086861739977, 3639.892177568934, 2744.7271638783413, 4183.486602722001, -4818.85729060856, 2459.228331950704, 4610.382570073912, 0.0, 0.0, 0.0, 193.0, 0.0, 1.0, 1.0, 0.0, 0.0, 1.0, 1.0, 256.0, 1.0, 1.739490187235959E9, 0.0, 2025-02-13 18:43:07.235
86.0, -20021.061005718828, -20128.70700701559, -14817.776062223444, -1412.2949734085767, -4915.729751077861, -7799.015378834651, -3166.0128433719688, -2866.477115926399, -20149.85175727031, -8784.861419780424, 3669.8435151390454, 2770.4987252353103, 4202.172661086638, -4807.279086980711, 2494.812309123553, 4603.252363592668, 0.0, 0.0, 0.0, 193.0, 0.0, 1.0, 1.0, 0.0, 0.0, 1.0, 1.0, 256.0, 1.0, 1.73949018724408E9, 0.0, 2025-02-13 18:43:07.244
88.0, -20022.603276086247, -20132.88678322873, -14824.146309393205, -1428.8799677944146, -4925.586870382652, -7815.466262753757, -3174.1488783537006, -2882.548020189765, -20157.808978296398, -8796.014940263622, 3646.9106253279006, 2750.6280244145423, 4186.437032990102, -4820.488967953797, 2476.5732856480226, 4605.062854893548, 0.0, 0.0, 0.0, 193.0, 0.0, 1.0, 1.0, 0.0, 0.0, 1.0, 1.0, 256.0, 1.0, 1.739490187251058E9, 0.0, 2025-02-13 18:43:07.251
90.0, -20003.939569466063, -20112.12201262975, -14803.31448356086, -1400.605011058451, -4903.145718949523, -7786.744271128688, -3155.0157850999576, -2861.2244559794017, -20156.579632351357, -8779.318187155508, 3666.736622659758, 2762.2956350202126, 4192.606114459767, -4814.208127761856, 2476.148602503372, 4586.488555251188, 0.0, 0.0, 0.0, 193.0, 0.0, 1.0, 1.0, 0.0, 0.0, 1.0, 1.0, 256.0, 1.0, 1.739490187260119E9, 0.0, 2025-02-13 18:43:07.260
92.0, -20029.10763372274, -20137.915925731173, -14836.08214093234, -1437.0830580095123, -4930.861882074104, -7827.849129181997, -3187.3811110712422, -2884.9396568464826, -20169.70010634662, -8794.316207685019, 3652.2526922527186, 2752.8408471156176, 4189.946256869585, -4820.66778190944, 2480.328378716514, 4614.361180586956, 0.0, 0.0, 0.0, 193.0, 0.0, 1.0, 1.0, 0.0, 0.0, 1.0, 1.0, 256.0, 1.0, 1.739490187268176E9, 0.0, 2025-02-13 18:43:07.268
94.0, -20016.81417427232, -20128.59524829331, -14818.513669790467, -1408.226955917711, -4909.940649263936, -7798.478936967724, -3166.549285238896, -2860.5315519012875, -20171.66705985869, -8792.662178595327, 3661.595721435037, 2759.389908241023, 4192.6955214375885, -4823.19352903289, 2481.3118554725474, 4604.280543837613, 0.0, 0.0, 0.0, 193.0, 0.0, 1.0, 1.0, 0.0, 0.0, 1.0, 1.0, 256.0, 1.0, 1.73949018727519E9, 0.0, 2025-02-13 18:43:07.275
96.0, -20033.332113424793, -20144.08500720084, -14840.194861912116, -1440.994613289191, -4933.633498386562, -7827.178576848338, -3187.6716837491613, -2883.0174068233264, -20167.867263301287, -8787.45422213724, 3658.265311511196, 2755.7242221503525, 4192.628466204223, -4817.985572574803, 2483.1223467734276, 4601.508927525154, 0.0, 0.0, 0.0, 193.0, 0.0, 1.0, 1.0, 0.0, 0.0, 1.0, 1.0, 256.0, 1.0, 1.73949018728322E9, 0.0, 2025-02-13 18:43:07.283
98.0, -20024.39141564267, -20131.143347161218, -14828.817823984364, -1412.674953064317, -4913.718094076883, -7803.530431214623, -3175.7358522100276, -2859.4586681674327, -20174.729248849064, -8796.797251319558, 3652.990299819744, 2753.3996407270006, 4186.392329501192, -4826.322773256633, 2472.661730368344, 4590.578924486509, 0.0, 0.0, 0.0, 193.0, 0.0, 1.0, 1.0, 0.0, 0.0, 1.0, 1.0, 256.0, 1.0, 1.739490187292255E9, 0.0, 2025-02-13 18:43:07.292
100.0, -20035.254363447948, -20146.52134734647, -14846.006315470495, -1442.3357179565094, -4934.259347231311, -7831.313649572569, -3192.812584973882, -2882.95035158996, -20169.096609246328, -8794.517373385117, 3654.4431632093388, 2754.025489571749, 4189.007483602462, -4824.780502889216, 2452.5675121030226, 4585.259209306146, 0.0, 0.0, 0.0, 193.0, 0.0, 1.0, 1.0, 0.0, 0.0, 1.0, 1.0, 256.0, 1.0, 1.739490187300296E9, 0.0, 2025-02-13 18:43:07.300
102.0, -20027.185383699583, -20135.546640818913, -14829.957762951586, -1417.6817438223059, -4923.3740476815765, -7812.962867374763, -3173.880657420237, -2862.0738222687037, -20178.216120984092, -8801.558172888539, 3647.849398595023, 2749.801009869696, 4188.225172546527, -4825.048723822681, 2462.0223000076176, 4613.690628253296, 0.0, 0.0, 0.0, 193.0, 0.0, 1.0, 1.0, 0.0, 0.0, 1.0, 1.0, 256.0, 1.0, 1.739490187307275E9, 0.0, 2025-02-13 18:43:07.307
104.0, -20031.834546546288, -20145.537870590433, -14836.529175821446, -1438.737087099205, -4938.036792044258, -7829.8384344385195, -3181.7037679795944, -2881.8104126227395, -20168.738981335042, -8787.096594225955, 3665.686090670358, 2762.6309111870423, 4197.769367428943, -4817.069151052136, 2464.9950820201734, 4600.614857746942, 0.0, 0.0, 0.0, 193.0, 0.0, 1.0, 1.0, 0.0, 0.0, 1.0, 1.0, 256.0, 1.0, 1.739490187315366E9, 0.0, 2025-02-13 18:43:07.315
106.0, -20013.036729459374, -20125.622466280754, -14807.717777218555, -1407.0870169504901, -4919.037809257246, -7801.027035835628, -3156.334538022821, -2864.308996714234, -20169.901272046718, -8798.652446109349, 3644.1613607598974, 2745.9565098233834, 4186.861716134753, -4822.4112179769545, 2468.750175088665, 4612.3942270748885, 0.0, 0.0, 0.0, 193.0, 0.0, 1.0, 1.0, 0.0, 0.0, 1.0, 1.0, 256.0, 1.0, 1.739490187324419E9, 0.0, 2025-02-13 18:43:07.324
108.0, -20009.795726513355, -20128.617600037767, -14812.769271465455, -1425.706020081761, -4929.6548878735175, -7815.555669731578, -3162.280102047933, -2880.8492876111613, -20153.51744336098, -8775.808963276026, 3671.855172140023, 2763.837905387629, 4196.718835439544, -4814.588107417597, 2482.5188496731344, 4591.808270431551, 0.0, 0.0, 0.0, 193.0, 0.0, 1.0, 1.0, 0.0, 0.0, 1.0, 1.0, 256.0, 1.0, 1.739490187331413E9, 0.0, 2025-02-13 18:43:07.331
110.0, -20024.972560998507, -20134.160832662685, -14824.012198926474, -1415.4018658878645, -4920.781245324761, -7805.139756815405, -3160.983700869525, -2865.538342659276, -20170.303603446915, -8802.40753917784, 3641.43444793635, 2743.810742355674, 4182.346663754781, -4827.7532849017725, 2459.6977185842657, 4604.548764771076, 0.0, 0.0, 0.0, 193.0, 0.0, 1.0, 1.0, 0.0, 0.0, 1.0, 1.0, 256.0, 1.0, 1.739490187339456E9, 0.0, 2025-02-13 18:43:07.339
112.0, -20008.968711968508, -20113.530172530434, -14817.641951756712, -1423.0014590026688, -4921.630611614062, -7800.691759668799, -3166.146953838701, -2877.340063731678, -20154.880899772754, -8782.268617423608, 3670.4246604948835, 2766.7212804223636, 4204.050207620884, -4810.564793415641, 2459.6753668398105, 4597.284447823101, 0.0, 0.0, 0.0, 193.0, 0.0, 1.0, 1.0, 0.0, 0.0, 1.0, 1.0, 256.0, 1.0, 1.739490187347554E9, 0.0, 2025-02-13 18:43:07.347
114.0, -20019.76460454042, -20130.204573894094, -14819.966533180062, -1416.9217845108253, -4926.123312249579, -7811.197079562793, -3169.00797712898, -2870.9474648174605, -20171.04121101394, -8803.748643845158, 3641.4567996808055, 2740.97207080985, 4175.641140418189, -4834.52586347173, 2464.39158491988, 4585.706244195252, 0.0, 0.0, 0.0, 193.0, 0.0, 1.0, 1.0, 0.0, 0.0, 1.0, 1.0, 256.0, 1.0, 1.739490187356503E9, 0.0, 2025-02-13 18:43:07.356
116.0, -20021.843316774764, -20140.79930076591, -14824.593344282312, -1426.4659793932415, -4931.487730918852, -7822.4400070238125, -3174.752375453994, -2879.1282032881027, -20164.782722566455, -8781.240437178665, 3683.4780792567826, 2776.2431235603244, 4206.240678577505, -4813.850499850571, 2489.3808352209135, 4605.264020593646, 0.0, 0.0, 0.0, 193.0, 0.0, 1.0, 1.0, 0.0, 0.0, 1.0, 1.0, 256.0, 1.0, 1.739490187363523E9, 0.0, 2025-02-13 18:43:07.363
118.0, -20027.699473822056, -20142.185108922138, -14824.258068115481, -1420.2745461791214, -4927.754989594816, -7822.283544812625, -3173.657139975684, -2872.176810762502, -20180.384240196257, -8803.547478145061, 3641.8367793365455, 2745.3306609786346, 4185.520611467435, -4827.775636646228, 2463.206942463749, 4610.471977051732, 0.0, 0.0, 0.0, 193.0, 0.0, 1.0, 1.0, 0.0, 0.0, 1.0, 1.0, 256.0, 1.0, 1.739490187371587E9, 0.0, 2025-02-13 18:43:07.371
120.0, -20018.848183017755, -20134.071425684862, -14824.392178582213, -1421.4591886352528, -4924.40222792652, -7819.087245355517, -3175.1770585986446, -2871.3497962176557, -20166.41439991169, -8780.033442978078, 3676.2584657977186, 2771.16927756897, 4203.290248309404, -4813.738741128295, 2468.973692533218, 4589.059005863548, 0.0, 0.0, 0.0, 193.0, 0.0, 1.0, 1.0, 0.0, 0.0, 1.0, 1.0, 256.0, 1.0, 1.739490187379654E9, 0.0, 2025-02-13 18:43:07.379
122.0, -20015.16014518263, -20125.957742447586, -14822.581687281334, -1417.480578122208, -4923.239937214844, -7816.583849976522, -3175.981721399036, -2872.0203485513152, -20181.501827419022, -8804.307437456542, 3635.9806222892553, 2739.966242309361, 4178.166887541639, -4831.262508781256, 2451.785201047087, 4607.00745666116, 0.0, 0.0, 0.0, 193.0, 0.0, 1.0, 1.0, 0.0, 0.0, 1.0, 1.0, 256.0, 1.0, 1.739490187386714E9, 0.0, 2025-02-13 18:43:07.386
124.0, -20007.091165434264, -20123.87903021324, -14814.579762766334, -1410.8197582745265, -4920.043637757735, -7806.950248116285, -3166.0575468608795, -2867.3264822157007, -20154.009181738995, -8780.860457522924, 3666.691919170847, 2761.6474344310086, 4200.518631996945, -4807.94963931437, 2428.1817589022826, 4594.736348955196, 0.0, 0.0, 0.0, 193.0, 0.0, 1.0, 1.0, 0.0, 0.0, 1.0, 1.0, 256.0, 1.0, 1.739490187395764E9, 0.0, 2025-02-13 18:43:07.395
126.0, -20015.920104494107, -20133.087948928827, -14825.26389661597, -1419.6486973343729, -4929.49842566233, -7818.751969188687, -3175.780555698938, -2875.5519241752536, -20179.266652973492, -8798.093652497966, 3642.015593292188, 2741.933195821428, 4179.39623348668, -4831.888357626004, 2471.6335501234, 4592.478822765211, 0.0, 0.0, 0.0, 193.0, 0.0, 1.0, 1.0, 0.0, 0.0, 1.0, 1.0, 256.0, 1.0, 1.739490187403742E9, 0.0, 2025-02-13 18:43:07.403
128.0, -20009.080470690784, -20122.98496043503, -14819.921829691153, -1409.7915780295823, -4919.64130635754, -7805.586791704512, -3171.131392852234, -2866.3653572041226, -20160.46883588658, -8773.93141674178, 3678.6501024544364, 2765.73780366633, 4194.9306958831185, -4820.913651098448, 2483.658788640355, 4574.396261500867, 0.0, 0.0, 0.0, 193.0, 0.0, 1.0, 1.0, 0.0, 0.0, 1.0, 1.0, 256.0, 1.0, 1.739490187411742E9, 0.0, 2025-02-13 18:43:07.411
130.0, -20019.33992139577, -20136.150137919205, -14825.55446929389, -1425.0131160036465, -4935.488693176352, -7823.065855868561, -3176.361701054776, -2878.4576509544436, -20177.299699461426, -8805.246210723664, 3639.8698258244785, 2745.1071435340814, 4188.649855691177, -4822.724142399328, 2450.8687795244196, 4619.837357978507, 0.0, 0.0, 0.0, 193.0, 0.0, 1.0, 1.0, 0.0, 0.0, 1.0, 1.0, 256.0, 1.0, 1.739490187418776E9, 0.0, 2025-02-13 18:43:07.418
132.0, -20010.24276140246, -20123.87903021324, -14808.187163852117, -1407.1093686949455, -4924.916318048992, -7810.235954551215, -3154.9487298665917, -2864.6219211366083, -20166.4591034006, -8777.93237899928, 3683.0310443676767, 2774.253818303802, 4205.793643688398, -4812.24117424979, 2487.4809369422123, 4604.504061282166, 0.0, 0.0, 0.0, 193.0, 0.0, 1.0, 1.0, 0.0, 0.0, 1.0, 1.0, 256.0, 1.0, 1.739490187427804E9, 0.0, 2025-02-13 18:43:07.427
134.0, -20010.95801722503, -20131.903306472697, -14811.204649353582, -1422.4426653912863, -4933.611146642107, -7819.891908155908, -3163.4200410151534, -2880.5587149332423, -20175.176283738172, -8791.768108817114, 3653.683203897858, 2750.0468790587042, 4189.029835346918, -4820.131340042512, 2471.29827395657, 4612.014247419149, 0.0, 0.0, 0.0, 193.0, 0.0, 1.0, 1.0, 0.0, 0.0, 1.0, 1.0, 256.0, 1.0, 1.739490187435908E9, 0.0, 2025-02-13 18:43:07.435
136.0, -19991.95903443802, -20110.825611451342, -14792.049204355384, -1396.380531356398, -4909.359503908098, -7788.308893240559, -3144.3540029947762, -2859.793944334262, -20158.27836492996, -8775.071355709, 3677.6889774428582, 2766.631873444542, 4198.775195929432, -4809.313095726144, 2480.1272130164166, 4602.402997303367, 0.0, 0.0, 0.0, 193.0, 0.0, 1.0, 1.0, 0.0, 0.0, 1.0, 1.0, 256.0, 1.0, 1.739490187442882E9, 0.0, 2025-02-13 18:43:07.442
138.0, -20007.046461945352, -20124.84015522482, -14814.378597066236, -1423.4037904028644, -4926.346829694132, -7816.8073674210755, -3168.6503492176953, -2878.927037588005, -20166.637917356245, -8787.811850048525, 3654.241997509241, 2748.191684268914, 4182.816050388343, -4822.075941810124, 2475.522753658623, 4595.697473966775, 0.0, 0.0, 0.0, 193.0, 0.0, 1.0, 1.0, 0.0, 0.0, 1.0, 1.0, 256.0, 1.0, 1.739490187450907E9, 0.0, 2025-02-13 18:43:07.450
140.0, -19997.90459846313, -20114.89362894221, -14799.022948625441, -1397.6545807903506, -4913.427521398964, -7797.562515445056, -3150.6348431867177, -2857.737583844374, -20160.222966697573, -8784.92847501379, 3667.407174993417, 2762.4968007203106, 4193.008445859962, -4813.649334150474, 2475.29923621407, 4604.191136859791, 0.0, 0.0, 0.0, 193.0, 0.0, 1.0, 1.0, 0.0, 0.0, 1.0, 1.0, 256.0, 1.0, 1.739490187460017E9, 0.0, 2025-02-13 18:43:07.460
142.0, -20008.298159634847, -20129.6010767938, -14817.284323845426, -1424.9460607702806, -4932.4712076748865, -7823.3787802909355, -3171.6678347191614, -2879.2399620103793, -20164.358039421804, -8785.151992458343, 3658.1982562778303, 2752.930254093439, 4180.335006753803, -4825.160482544957, 2480.1495647608717, 4591.584752986998, 0.0, 0.0, 0.0, 193.0, 0.0, 1.0, 1.0, 0.0, 0.0, 1.0, 1.0, 256.0, 1.0, 1.739490187466972E9, 0.0, 2025-02-13 18:43:07.466
144.0, -19994.082450161273, -20111.920846929654, -14801.995730637997, -1395.061778433535, -4910.655905086506, -7795.997893333184, -3156.178075811634, -2856.150609988047, -20170.057734257905, -8789.443527393762, 3661.886294112956, 2756.506533206288, 4190.125070825228, -4815.213956262345, 2467.744346588176, 4609.2202793622355, 0.0, 0.0, 0.0, 193.0, 0.0, 1.0, 1.0, 0.0, 0.0, 1.0, 1.0, 256.0, 1.0, 1.739490187475107E9, 0.0, 2025-02-13 18:43:07.475
146.0, -20003.179610154584, -20120.369806333758, -14819.430091313136, -1422.3979619023755, -4923.798730826227, -7815.8685941539525, -3174.014767886969, -2876.8483253536615, -20163.195748710128, -8790.628169849893, 3658.824105122579, 2752.550274437699, 4186.97347485703, -4812.442339949887, 2455.272073182115, 4581.995854615671, 0.0, 0.0, 0.0, 193.0, 0.0, 1.0, 1.0, 0.0, 0.0, 1.0, 1.0, 256.0, 1.0, 1.73949018748313E9, 0.0, 2025-02-13 18:43:07.483
148.0, -19989.321528592292, -20102.242541580505, -14799.492335259001, -1390.479670820197, -4903.123367205068, -7788.890038596397, -3150.7242501645387, -2854.541284387265, -20161.653478342712, -8787.856553537435, 3660.9922243347437, 2748.5493121801987, 4178.569218941834, -4827.038029079203, 2471.007701278651, 4563.957996840239, 0.0, 0.0, 0.0, 193.0, 0.0, 1.0, 1.0, 0.0, 0.0, 1.0, 1.0, 256.0, 1.0, 1.739490187492088E9, 0.0, 2025-02-13 18:43:07.492
150.0, -19998.95513045253, -20114.06661439736, -14814.490355788514, -1417.2123571887444, -4919.328381935165, -7810.727692929232, -3168.9409218956143, -2873.6073224076417, -20154.970306750572, -8783.050928479544, 3663.786192391657, 2755.634815172531, 4190.750919669977, -4816.420950462932, 2450.9358347577854, 4574.195095800769, 0.0, 0.0, 0.0, 193.0, 0.0, 1.0, 1.0, 0.0, 0.0, 1.0, 1.0, 256.0, 1.0, 1.739490187499197E9, 0.0, 2025-02-13 18:43:07.499
152.0, -20009.840430002267, -20121.733262745533, -14817.150213378694, -1406.5058715946523, -4919.440140657442, -7805.16210855986, -3166.526933494441, -2860.509200156832, -20158.345420163325, -8796.171402474809, 3644.9660235602887, 2749.1081057915817, 4194.30484703837, -4810.341275971088, 2451.137000457883, 4623.212471391257, 0.0, 0.0, 0.0, 193.0, 0.0, 1.0, 1.0, 0.0, 0.0, 1.0, 1.0, 256.0, 1.0, 1.739490187507243E9, 0.0, 2025-02-13 18:43:07.507
154.0, -20014.355482382238, -20125.331893602837, -14823.945143693109, -1433.0820957520123, -4936.5839286546625, -7821.434178523324, -3174.1265266092455, -2882.123337045114, -20164.64861209972, -8772.59031207446, 3676.6160937090035, 2771.9739403693607, 4208.632315234222, -4805.669761379929, 2505.451739484279, 4623.905375469372, 0.0, 0.0, 0.0, 193.0, 0.0, 1.0, 1.0, 0.0, 0.0, 1.0, 1.0, 256.0, 1.0, 1.739490187516205E9, 0.0, 2025-02-13 18:43:07.516
156.0, -20010.935665480574, -20130.27162912746, -14809.595323752801, -1407.7799210286048, -4919.7977685687265, -7805.922067871341, -3156.334538022821, -2863.8172583362175, -20164.5592051219, -8782.402727890341, 3656.9689103327887, 2754.7407453943188, 4192.851983648776, -4813.448168450376, 2491.794823622087, 4623.4806923247215, 0.0, 0.0, 0.0, 193.0, 0.0, 1.0, 1.0, 0.0, 0.0, 1.0, 1.0, 256.0, 1.0, 1.739490187523316E9, 0.0, 2025-02-13 18:43:07.523
158.0, -20000.452697331035, -20122.202649379095, -14804.879105672731, -1415.2677554211325, -4922.234108714355, -7810.906506884874, -3155.820447900349, -2875.9766073199044, -20152.578670093855, -8763.426096847785, 3679.857096655023, 2771.906885135995, 4206.575954744334, -4795.678531608407, 2492.8006521225757, 4618.004514933171, 0.0, 0.0, 0.0, 193.0, 0.0, 1.0, 1.0, 0.0, 0.0, 1.0, 1.0, 256.0, 1.0, 1.739490187531266E9, 0.0, 2025-02-13 18:43:07.531
160.0, -19993.47895306098, -20112.434937052123, -14788.025890353429, -1393.0277696881021, -4910.499442875319, -7798.568343945545, -3140.174226781634, -2862.029118779793, -20160.7594085645, -8781.173381945298, 3650.8445323520345, 2748.772829624752, 4190.035663847407, -4808.910764325949, 2463.8998465418636, 4625.58175630352, 0.0, 0.0, 0.0, 193.0, 0.0, 1.0, 1.0, 0.0, 0.0, 1.0, 1.0, 256.0, 1.0, 1.739490187539389E9, 0.0, 2025-02-13 18:43:07.539
162.0, -19999.044537430353, -20125.533059302936, -14792.675053200133, -1410.0374472185908, -4925.385704682553, -7817.857899410475, -3147.2597297739662, -2875.060185797237, -20153.159815449693, -8759.335727612464, 3690.9882653937657, 2778.321835794668, 4209.0122948899625, -4798.852479321061, 2505.0047045951733, 4617.3786660884225, 0.0, 0.0, 0.0, 193.0, 0.0, 1.0, 1.0, 0.0, 0.0, 1.0, 1.0, 256.0, 1.0, 1.739490187548385E9, 0.0, 2025-02-13 18:43:07.548
164.0, -19992.495476304946, -20117.017044665463, -14779.755744904965, -1391.641961531873, -4917.4508354009195, -7808.514870228157, -3139.078991303324, -2864.8454385811615, -20170.728286591566, -8782.581541845982, 3655.024308565177, 2749.9127685919725, 4183.553657955367, -4817.493834196786, 2485.201059007771, 4619.367971344945, 0.0, 0.0, 0.0, 193.0, 0.0, 1.0, 1.0, 0.0, 0.0, 1.0, 1.0, 256.0, 1.0, 1.739490187555428E9, 0.0, 2025-02-13 18:43:07.555
166.0, -19988.159237880616, -20113.64193125271, -14781.968567606042, -1399.1074441799456, -4920.289506946744, -7810.727692929232, -3143.683450661117, -2870.1428020170692, -20155.216175939582, -8761.146218913344, 3689.2895328151626, 2775.8854956490395, 4204.363132043259, -4799.366569443532, 2494.387625978902, 4614.160014886858, 0.0, 0.0, 0.0, 193.0, 0.0, 1.0, 1.0, 0.0, 0.0, 1.0, 1.0, 256.0, 1.0, 1.739490187563482E9, 0.0, 2025-02-13 18:43:07.563
168.0, -19985.745249479445, -20110.043300395406, -14783.555541462369, -1393.7877289995824, -4914.902736533015, -7807.039655094106, -3148.1314478077234, -2866.0971362706587, -20171.354135436315, -8789.823507049503, 3648.765820117691, 2744.1460185225033, 4178.122184052728, -4820.824244120628, 2476.0144920366397, 4612.416578819344, 0.0, 0.0, 0.0, 193.0, 0.0, 1.0, 1.0, 0.0, 0.0, 1.0, 1.0, 256.0, 1.0, 1.739490187571548E9, 0.0, 2025-02-13 18:43:07.571
170.0, -19986.48285704647, -20110.467983540057, -14786.841247897299, -1395.061778433535, -4913.785149310249, -7806.503213227179, -3151.4171542426534, -2864.308996714234, -20156.713742818087, -8768.79051551706, 3685.2215153242964, 2771.7280711803523, 4197.92582964013, -4807.659066636452, 2484.329340974014, 4601.5312792696095, 0.0, 0.0, 0.0, 193.0, 0.0, 1.0, 1.0, 0.0, 0.0, 1.0, 1.0, 256.0, 1.0, 1.739490187579491E9, 0.0, 2025-02-13 18:43:07.579
172.0, -19991.53435129337, -20113.485469041523, -14791.043375854895, -1397.4087116013422, -4916.690876089439, -7811.644114451899, -3157.2509595454885, -2866.5218194153094, -20169.297774946426, -8796.260809452631, 3644.8766165824672, 2743.16254176647, 4179.060957319851, -4822.321810999133, 2464.9727302757183, 4607.8121194615505, 0.0, 0.0, 0.0, 193.0, 0.0, 1.0, 1.0, 0.0, 0.0, 1.0, 1.0, 256.0, 1.0, 1.739490187587597E9, 0.0, 2025-02-13 18:43:07.587
174.0, -19991.15437163763, -20115.564181275866, -14788.718794431543, -1396.380531356398, -4916.042675500235, -7808.82779465053, -3152.780610654427, -2863.2584647248345, -20155.059713728395, -8768.343480627953, 3683.3886722789616, 2774.6561497039975, 4203.156137842672, -4804.708636368351, 2484.8210793520307, 4600.10076762447, 0.0, 0.0, 0.0, 193.0, 0.0, 1.0, 1.0, 0.0, 0.0, 1.0, 1.0, 256.0, 1.0, 1.739490187595586E9, 0.0, 2025-02-13 18:43:07.595
176.0, -19993.747173994445, -20113.999559163996, -14791.624521210733, -1404.8965459938702, -4920.8483005581265, -7809.274829539637, -3158.3461950237984, -2870.120450272614, -20171.152969736217, -8792.438661150773, 3646.597700905526, 2745.6212336565536, 4181.094966065284, -4821.204223776367, 2461.7764308186092, 4609.063817151048, 0.0, 0.0, 0.0, 193.0, 0.0, 1.0, 1.0, 0.0, 0.0, 1.0, 1.0, 256.0, 1.0, 1.739490187603636E9, 0.0, 2025-02-13 18:43:07.603
178.0, -19980.738458721455, -20106.355262560282, -14774.659547169156, -1384.6235137729066, -4909.247745185822, -7799.171841045838, -3140.978889582025, -2855.7259268433963, -20145.98490547954, -8776.814791776515, 3671.698709928836, 2763.2120565428804, 4200.295114552393, -4795.723235097317, 2413.787235473065, 4605.599296760475, 0.0, 0.0, 0.0, 193.0, 0.0, 1.0, 1.0, 0.0, 0.0, 1.0, 1.0, 256.0, 1.0, 1.739490187610625E9, 0.0, 2025-02-13 18:43:07.610
180.0, -20019.831659773787, -20152.17633869366, -14812.791623209909, -1420.2298426902107, -4943.110638035612, -7852.190178893827, -3173.2324568310332, -2874.5460956747647, -20181.85945533031, -8786.493097125662, 3649.7045933848135, 2746.8505796015957, 4180.536172453902, -4821.159520287457, 2476.3721199479246, 4617.758645744163, 0.0, 0.0, 0.0, 193.0, 0.0, 1.0, 1.0, 0.0, 0.0, 1.0, 1.0, 256.0, 1.0, 1.739490187619764E9, 0.0, 2025-02-13 18:43:07.619
182.0, -19993.702470505534, -20124.951913947098, -14784.851942640775, -1389.2726766196106, -4918.009629012302, -7816.628553465433, -3149.249035030489, -2856.150609988047, -20182.060621030407, -8776.725384798692, 3684.3497972905398, 2774.4326322594443, 4193.6342947047115, -4820.332505742611, 2495.616971923944, 4588.164936085336, 0.0, 0.0, 0.0, 193.0, 0.0, 1.0, 1.0, 0.0, 0.0, 1.0, 1.0, 256.0, 1.0, 1.73949018762781E9, 0.0, 2025-02-13 18:43:07.627
184.0, -19993.590711783258, -20123.007312179485, -14791.803335166376, -1404.4718628492192, -4926.2127192274, -7826.530376259134, -3157.2733112899436, -2871.6403688955747, -20170.460065658102, -8782.559190101527, 3651.1351050299536, 2741.9778993103387, 4170.589646171289, -4828.423837235432, 2462.178762218805, 4554.011470557627, 0.0, 0.0, 0.0, 193.0, 0.0, 1.0, 1.0, 0.0, 0.0, 1.0, 1.0, 256.0, 1.0, 1.739490187634839E9, 0.0, 2025-02-13 18:43:07.634
186.0, -19992.473124560493, -20113.41841380816, -14784.15903856266, -1388.4903655636747, -4918.2107947124005, -7814.348675530991, -3150.4113257421645, -2856.955272788438, -20173.32108894838, -8775.317224898008, 3677.1301838314753, 2769.1352688235365, 4196.495317994991, -4818.276145252722, 2496.1981172797823, 4598.200869345769, 0.0, 0.0, 0.0, 193.0, 0.0, 1.0, 1.0, 0.0, 0.0, 1.0, 1.0, 256.0, 1.0, 1.739490187642779E9, 0.0, 2025-02-13 18:43:07.642
188.0, -19996.09410716225, -20129.444614582615, -14792.697404944589, -1410.506833852152, -4930.280736718266, -7834.286431585126, -3162.883599148226, -2875.753089875351, -20180.18307449616, -8789.01884424911, 3651.6268434079702, 2748.9069400914836, 4183.576009699823, -4826.747456401284, 2464.5703988755226, 4577.614912702431, 0.0, 0.0, 0.0, 193.0, 0.0, 1.0, 1.0, 0.0, 0.0, 1.0, 1.0, 256.0, 1.0, 1.739490187651819E9, 0.0, 2025-02-13 18:43:07.651
190.0, -19973.09416211774, -20100.186181090616, -14768.959852333051, -1377.515659036119, -4900.374102637065, -7794.388567732402, -3141.3141657488545, -2852.4625721529214, -20168.09078074584, -8786.895428525857, 3656.7900963771463, 2754.584283183132, 4189.409815002658, -4819.416084219943, 2450.2652824241263, 4582.308779038046, 0.0, 0.0, 0.0, 193.0, 0.0, 1.0, 1.0, 0.0, 0.0, 1.0, 1.0, 256.0, 1.0, 1.739490187658894E9, 0.0, 2025-02-13 18:43:07.658
192.0, -19997.27874961838, -20124.773099991453, -14798.6429689697, -1416.4971013661745, -4926.011553527303, -7831.7159809727655, -3171.9137039081697, -2877.6529881540523, -20171.309431947404, -8792.662178595327, 3645.0554305381097, 2747.387021468523, 4186.191163801094, -4822.232404021312, 2445.7278782996987, 4594.222258832724, 0.0, 0.0, 0.0, 193.0, 0.0, 1.0, 1.0, 0.0, 0.0, 1.0, 1.0, 256.0, 1.0, 1.739490187666949E9, 0.0, 2025-02-13 18:43:07.666
194.0, -19991.62375827119, -20117.240562110015, -14788.025890353429, -1394.6370952888842, -4914.7462743218275, -7809.788919662109, -3160.782535169427, -2858.0058047778375, -20179.356059951315, -8790.941094272268, 3658.7794016336684, 2761.870951875562, 4198.171698829138, -4818.879642353016, 2489.8055183655642, 4621.737256257207, 0.0, 0.0, 0.0, 193.0, 0.0, 1.0, 1.0, 0.0, 0.0, 1.0, 1.0, 256.0, 1.0, 1.73949018767492E9, 0.0, 2025-02-13 18:43:07.674
196.0, -19997.681081018578, -20127.07532967035, -14801.526344004435, -1418.285240922599, -4930.101922762624, -7827.759722204176, -3172.2266283305444, -2878.9046858435495, -20173.09757150383, -8790.382300660885, 3656.3207097435848, 2761.35686175309, 4200.07159710784, -4813.872851595027, 2473.533448402101, 4608.303857839568, 0.0, 0.0, 0.0, 193.0, 0.0, 1.0, 1.0, 0.0, 0.0, 1.0, 1.0, 256.0, 1.0, 1.739490187684998E9, 0.0, 2025-02-13 18:43:07.684
198.0, -19979.754981965423, -20102.041375880406, -14779.934558860608, -1387.2163161297221, -4904.5315271057525, -7788.2194862627375, -3147.0585640738686, -2854.4295256649884, -20167.7108010901, -8787.83420179298, 3652.2079887638083, 2756.484181461833, 4190.192126058594, -4820.824244120628, 2468.39254717738, 4592.277657065112, 0.0, 0.0, 0.0, 193.0, 0.0, 1.0, 1.0, 0.0, 0.0, 1.0, 1.0, 256.0, 1.0, 1.739490187692017E9, 0.0, 2025-02-13 18:43:07.692
200.0, -19994.395374583648, -20118.872239455253, -14797.659492213666, -1418.0840752225013, -4923.284640703755, -7816.092111598506, -3166.6833957056283, -2875.954255575449, -20153.450388127614, -8776.457163865229, 3664.0991168140313, 2768.1294403230477, 4204.83251867682, -4800.685322366396, 2475.902733314363, 4619.77030274514, 0.0, 0.0, 0.0, 193.0, 0.0, 1.0, 1.0, 0.0, 0.0, 1.0, 1.0, 256.0, 1.0, 1.739490187699103E9, 0.0, 2025-02-13 18:43:07.699
202.0, -19981.632528499667, -20105.88587592672, -14778.884026871208, -1388.6915312637725, -4905.090320717135, -7796.802556133575, -3147.885578618715, -2855.122429743103, -20160.93822252014, -8789.242361693665, 3648.050564295121, 2755.16542853897, 4194.997751116485, -4812.643505649985, 2468.01256752164, 4609.2202793622355, 0.0, 0.0, 0.0, 193.0, 0.0, 1.0, 1.0, 0.0, 0.0, 1.0, 1.0, 256.0, 1.0, 1.739490187707152E9, 0.0, 2025-02-13 18:43:07.707
204.0, -19989.209769870016, -20116.92763768764, -14792.809163666865, -1411.5350140970963, -4921.1612249805, -7815.332152287025, -3163.241227059511, -2872.869714840617, -20150.946992748617, -8777.552399343538, 3664.456744725316, 2764.5084577212883, 4202.664399464655, -4804.194546245879, 2466.135020987394, 4591.830622176007, 0.0, 0.0, 0.0, 193.0, 0.0, 1.0, 1.0, 0.0, 0.0, 1.0, 1.0, 256.0, 1.0, 1.739490187715109E9, 0.0, 2025-02-13 18:43:07.715
206.0, -19980.112609876705, -20104.924750915143, -14780.850980383275, -1387.0151504296246, -4909.806538797205, -7800.580000946522, -3153.138238565712, -2856.597644877153, -20166.168530722683, -8794.964408274223, 3638.014631034688, 2744.4365912004223, 4181.87727712122, -4823.595860433085, 2454.5791691040004, 4597.172689100825, 0.0, 0.0, 0.0, 193.0, 0.0, 1.0, 1.0, 0.0, 0.0, 1.0, 1.0, 256.0, 1.0, 1.739490187723221E9, 0.0, 2025-02-13 18:43:07.723
208.0, -19988.740383236454, -20121.46504181207, -14792.250370055483, -1406.416464616831, -4922.278812203266, -7821.523585501145, -3163.6659102041617, -2871.0368717952815, -20163.24045219904, -8785.531972114084, 3664.210875536308, 2765.961321110883, 4199.557506985368, -4809.581316659608, 2460.3459191734696, 4604.548764771076, 0.0, 0.0, 0.0, 193.0, 0.0, 1.0, 1.0, 0.0, 0.0, 1.0, 1.0, 256.0, 1.0, 1.739490187731197E9, 0.0, 2025-02-13 18:43:07.731
210.0, -19983.57713026728, -20113.619579508257, -14780.739221660999, -1388.9374004527808, -4911.684085331451, -7809.207774306271, -3152.0653548318573, -2857.6928803554633, -20174.88571106025, -8801.871097310914, 3632.7172675987804, 2741.642623143509, 4178.211591030549, -4827.4627122238535, 2440.922253241808, 4601.844203691984, 0.0, 0.0, 0.0, 193.0, 0.0, 1.0, 1.0, 0.0, 0.0, 1.0, 1.0, 256.0, 1.0, 1.739490187739255E9, 0.0, 2025-02-13 18:43:07.739
212.0, -19991.936682693566, -20126.874163970253, -14793.278550300427, -1406.3494093834652, -4925.296297704733, -7829.145530360405, -3162.369509025754, -2870.634540395086, -20166.503806889512, -8772.389146374362, 3673.4868494852603, 2769.6493589460088, 4191.9355621261075, -4816.063322551647, 2483.077643284517, 4585.303912795057, 0.0, 0.0, 0.0, 193.0, 0.0, 1.0, 1.0, 0.0, 0.0, 1.0, 1.0, 256.0, 1.0, 1.739490187746233E9, 0.0, 2025-02-13 18:43:07.746
214.0, -19995.825886228788, -20126.583591292336, -14793.859695656265, -1399.6662377913283, -4925.095132004635, -7826.396265792402, -3161.922474136648, -2867.639406638075, -20185.74865886553, -8802.228725222198, 3634.214834477286, 2744.928329578439, 4181.7208149100325, -4826.568642445641, 2459.563608117534, 4623.34658185799, 0.0, 0.0, 0.0, 193.0, 0.0, 1.0, 1.0, 0.0, 0.0, 1.0, 1.0, 256.0, 1.0, 1.739490187755266E9, 0.0, 2025-02-13 18:43:07.755
216.0, -19990.10383964823, -20122.381463334736, -14789.746974676487, -1402.1472814258673, -4922.949364536925, -7824.339905302514, -3157.496828734497, -2869.4946014278653, -20165.676792344668, -8775.183114431276, 3673.3974425074393, 2773.73972818133, 4196.78589067291, -4813.6046306615635, 2475.455698425257, 4592.85880242095, 0.0, 0.0, 0.0, 193.0, 0.0, 1.0, 1.0, 0.0, 0.0, 1.0, 1.0, 256.0, 1.0, 1.739490187763369E9, 0.0, 2025-02-13 18:43:07.763
218.0, -19998.373985096692, -20128.327027359846, -14793.54677123389, -1403.644848304373, -4925.45275991592, -7826.97741114824, -3161.676604947639, -2869.181677005491, -20178.953728551118, -8795.232629207687, 3631.4879216537383, 2739.4298004424336, 4170.2096665155495, -4833.5647384601525, 2456.4567156382464, 4582.599351715965, 0.0, 0.0, 0.0, 193.0, 0.0, 1.0, 1.0, 0.0, 0.0, 1.0, 1.0, 256.0, 1.0, 1.739490187771359E9, 0.0, 2025-02-13 18:43:07.771
220.0, -20008.901656735143, -20135.904268730195, -14802.97920739403, -1415.9830112437023, -4931.957117552414, -7830.508986772179, -3165.521104993952, -2871.059223539737, -20161.8099405539, -8782.380376145886, 3665.596683692537, 2774.0079491147935, 4208.855832678775, -4802.786386345195, 2450.757020802143, 4630.745009272696, 0.0, 0.0, 0.0, 193.0, 0.0, 1.0, 1.0, 0.0, 0.0, 1.0, 1.0, 256.0, 1.0, 1.739490187779396E9, 0.0, 2025-02-13 18:43:07.779
222.0, -20008.85695324623, -20134.630219296243, -14804.767346950453, -1417.9052612668588, -4931.912414063503, -7827.335039059525, -3167.0857271058235, -2874.993130563871, -20180.116019262794, -8799.859440309936, 3637.724058356769, 2748.437553457922, 4181.20672478756, -4829.317907013644, 2466.2244279652155, 4612.997724175182, 0.0, 0.0, 0.0, 193.0, 0.0, 1.0, 1.0, 0.0, 0.0, 1.0, 1.0, 256.0, 1.0, 1.739490187787498E9, 0.0, 2025-02-13 18:43:07.787
224.0, -19999.58097929728, -20122.962608690574, -14801.16871609315, -1411.512662352641, -4924.469283159886, -7815.399207520391, -3163.0847648483236, -2869.896932828061, -20162.502844632014, -8769.751640528637, 3679.3206547880955, 2778.768870683774, 4201.54681224189, -4811.682380638406, 2495.013474823651, 4605.778110716118, 0.0, 0.0, 0.0, 193.0, 0.0, 1.0, 1.0, 0.0, 0.0, 1.0, 1.0, 256.0, 1.0, 1.739490187795493E9, 0.0, 2025-02-13 18:43:07.795
226.0, -20004.565418310813, -20128.930524460142, -14808.544791763401, -1418.642868833884, -4930.727771607372, -7828.586736749022, -3173.880657420237, -2877.6529881540523, -20177.14323725024, -8797.244286208665, 3639.8698258244785, 2751.656204659487, 4180.714986409544, -4829.183796546912, 2468.4819541552015, 4595.630418733409, 0.0, 0.0, 0.0, 193.0, 0.0, 1.0, 1.0, 0.0, 0.0, 1.0, 1.0, 256.0, 1.0, 1.739490187802543E9, 0.0, 2025-02-13 18:43:07.802
228.0, -19987.04165065785, -20113.552524274888, -14790.864561899252, -1393.3406941104763, -4912.712265576394, -7804.7150736707545, -3158.3238432793432, -2862.8337815801838, -20161.295850431427, -8781.173381945298, 3671.2293232952743, 2775.6843299489415, 4199.579858729823, -4809.76013061525, 2467.386718676891, 4596.882116422906, 0.0, 0.0, 0.0, 193.0, 0.0, 1.0, 1.0, 0.0, 0.0, 1.0, 1.0, 256.0, 1.0, 1.739490187810531E9, 0.0, 2025-02-13 18:43:07.810
230.0, -20001.704395020533, -20126.40477733669, -14809.88589643072, -1415.2454036766774, -4927.911451806003, -7829.793730949609, -3178.0827853778346, -2877.1388980315805, -20170.929452291664, -8795.59025711897, 3636.6064711340036, 2746.0012133122937, 4173.316558994837, -4835.308174527666, 2445.593767832967, 4579.894790636872, 0.0, 0.0, 0.0, 193.0, 0.0, 1.0, 1.0, 0.0, 0.0, 1.0, 1.0, 256.0, 1.0, 1.739490187819558E9, 0.0, 2025-02-13 18:43:07.819
232.0, -19996.362328095714, -20121.107413900783, -14802.196896338093, -1400.739121525183, -4915.014495255291, -7810.303009784581, -3166.839857916815, -2861.313862957223, -20167.487283645547, -8787.141297714865, 3669.5529424611263, 2780.735824195841, 4207.514728011457, -4805.75916835775, 2480.73071011671, 4619.5467853005875, 0.0, 0.0, 0.0, 193.0, 0.0, 1.0, 1.0, 0.0, 0.0, 1.0, 1.0, 256.0, 1.0, 1.739490187826671E9, 0.0, 2025-02-13 18:43:07.826
234.0, -20007.471145090003, -20134.965495463075, -14814.244486599504, -1423.4261421473198, -4930.526605907275, -7832.990030406718, -3182.3072650798877, -2880.2010870219574, -20173.186978481648, -8798.987722276179, 3641.859131081001, 2756.886512862028, 4186.325274267826, -4818.8349388641045, 2457.887227283386, 4610.695494496285, 0.0, 0.0, 0.0, 193.0, 0.0, 1.0, 1.0, 0.0, 0.0, 1.0, 1.0, 256.0, 1.0, 1.739490187834655E9, 0.0, 2025-02-13 18:43:07.834
236.0, -19993.47895306098, -20123.007312179485, -14795.26785555695, -1396.6264005454066, -4914.388646410543, -7809.252477795181, -3161.5424944809074, -2860.084517012181, -20168.291946445937, -8790.225838449698, 3660.3216720010846, 2772.510382236288, 4194.438957505102, -4819.3043254976665, 2466.9396837877853, 4591.875325664917, 0.0, 0.0, 0.0, 193.0, 0.0, 1.0, 1.0, 0.0, 0.0, 1.0, 1.0, 256.0, 1.0, 1.739490187843798E9, 0.0, 2025-02-13 18:43:07.843
238.0, -20004.565418310813, -20136.28424838594, -14812.009312153974, -1424.0743427365235, -4930.97364079638, -7835.627536252444, -3178.529820266941, -2879.7540521328515, -20177.14323725024, -8792.908047784334, 3641.277985725163, 2757.534713451232, 4188.314579524348, -4821.897127854482, 2452.1204772139167, 4599.631380990909, 0.0, 0.0, 0.0, 193.0, 0.0, 1.0, 1.0, 0.0, 0.0, 1.0, 1.0, 256.0, 1.0, 1.739490187851767E9, 0.0, 2025-02-13 18:43:07.851
240.0, -19992.651938516134, -20119.16281213317, -14793.099736344784, -1395.642923789373, -4915.506233633308, -7810.280658040126, -3156.6474624451953, -2858.765764089318, -20171.577652880867, -8788.325940170997, 3655.7842678766574, 2768.0176816007715, 4194.796585416387, -4820.690133653896, 2476.0368437810953, 4593.261133821146, 0.0, 0.0, 0.0, 193.0, 0.0, 1.0, 1.0, 0.0, 0.0, 1.0, 1.0, 256.0, 1.0, 1.739490187858751E9, 0.0, 2025-02-13 18:43:07.858
242.0, -20006.10768867823, -20136.798338508408, -14807.449556285092, -1424.0966944809788, -4937.45564668842, -7834.711114729776, -3171.1984480856, -2882.927999845505, -20169.007202268505, -8783.296797668552, 3656.3877649769506, 2764.2402367878244, 4192.315541781848, -4820.2430987647895, 2487.950323575774, 4603.744101970685, 0.0, 0.0, 0.0, 193.0, 0.0, 1.0, 1.0, 0.0, 0.0, 1.0, 1.0, 256.0, 1.0, 1.739490187866811E9, 0.0, 2025-02-13 18:43:07.866
244.0, -19984.38179306767, -20109.663320739666, -14780.314538516348, -1386.6575225183396, -4905.716169561883, -7803.7763004036315, -3144.5775204393294, -2857.9387495444716, -20175.600966882823, -8784.50379186914, 3657.0359655661546, 2762.474448975855, 4187.979303357519, -4824.556985444664, 2468.8619338109415, 4578.888962136383, 0.0, 0.0, 0.0, 193.0, 0.0, 1.0, 1.0, 0.0, 0.0, 1.0, 1.0, 256.0, 1.0, 1.739490187875805E9, 0.0, 2025-02-13 18:43:07.875
246.0, -20004.29719737735, -20134.6525710407, -14804.588532994812, -1423.224976447222, -4932.06887627469, -7836.253385097192, -3168.6056457287846, -2882.4362614674883, -20166.995545267528, -8778.535876099573, 3654.53257018716, 2758.4064314849893, 4189.521573724935, -4816.3091917406555, 2446.2866719110816, 4595.496308266676, 0.0, 0.0, 0.0, 193.0, 0.0, 1.0, 1.0, 0.0, 0.0, 1.0, 1.0, 256.0, 1.0, 1.739490187882941E9, 0.0, 2025-02-13 18:43:07.882
248.0, -19997.234046129473, -20121.68855925662, -14791.98214912202, -1399.0180372021243, -4916.869690045081, -7816.382684276425, -3156.178075811634, -2861.9397118019715, -20177.053830272416, -8786.917780270313, 3653.8173143645904, 2761.9156553644725, 4195.534192983412, -4816.957392329859, 2478.786108349098, 4617.356314343967, 0.0, 0.0, 0.0, 193.0, 0.0, 1.0, 1.0, 0.0, 0.0, 1.0, 1.0, 256.0, 1.0, 1.739490187890866E9, 0.0, 2025-02-13 18:43:07.890
250.0, -20007.851124745743, -20137.22302165306, -14808.611846996768, -1423.9178805253364, -4935.30987922071, -7838.801483965098, -3174.752375453994, -2880.2681422553233, -20169.007202268505, -8781.620416834405, 3666.2672360261963, 2770.4316700019444, 4202.463233764557, -4812.151767271968, 2473.7122623577434, 4599.251401335168, 0.0, 0.0, 0.0, 193.0, 0.0, 1.0, 1.0, 0.0, 0.0, 1.0, 1.0, 256.0, 1.0, 1.739490187898974E9, 0.0, 2025-02-13 18:43:07.898
252.0, -20000.67621477559, -20129.914001216173, -14796.698367202089, -1397.0957871789678, -4919.149567979523, -7818.014361621662, -3161.050756102891, -2860.509200156832, -20177.411458183702, -8795.254980952142, 3646.0389072941434, 2754.584283183132, 4185.498259722979, -4823.059418566158, 2459.6977185842657, 4588.835488418995, 0.0, 0.0, 0.0, 193.0, 0.0, 1.0, 1.0, 0.0, 0.0, 1.0, 1.0, 256.0, 1.0, 1.73949018790804E9, 0.0, 2025-02-13 18:43:07.908
254.0, -20014.24372365996, -20142.40862636669, -14816.12203313375, -1423.9178805253364, -4937.857978088615, -7842.735390989232, -3176.1605353546784, -2880.8492876111613, -20171.22002496958, -8781.687472067772, 3667.8318581380677, 2773.6279694590535, 4198.350512784781, -4815.124549284524, 2473.2875792130926, 4603.677046737319, 0.0, 0.0, 0.0, 193.0, 0.0, 1.0, 1.0, 0.0, 0.0, 1.0, 1.0, 256.0, 1.0, 1.73949018791497E9, 0.0, 2025-02-13 18:43:07.914
0.0, -20000.832676986778, -20124.236658124526, -14801.906323660174, -1399.8897552358812, -4915.126253977568, -7817.120291843449, -3168.9185701511587, -2862.610264135631, -20179.914853562695, -8797.35604493094, 3641.6132618919924, 2752.4608674598776, 4183.307788766359, -4825.316944756144, 2468.9960442776733, 4597.239744334191, 0.0, 0.0, 0.0, 193.0, 0.0, 1.0, 1.0, 0.0, 0.0, 1.0, 1.0, 256.0, 1.0, 1.739490187923109E9, 0.0, 2025-02-13 18:43:07.923
2.0, -20005.124211922197, -20134.36199836278, -14809.327102819338, -1418.9110897673477, -4930.012515784802, -7834.26407984067, -3176.942846410614, -2875.507220686343, -20169.767161579988, -8784.772012802603, 3665.4178697368948, 2774.0079491147935, 4202.999675631485, -4813.537575428197, 2470.292445456081, 4596.546840256076, 0.0, 0.0, 0.0, 193.0, 0.0, 1.0, 1.0, 0.0, 0.0, 1.0, 1.0, 256.0, 1.0, 1.73949018793108E9, 0.0, 2025-02-13 18:43:07.931
4.0, -20000.966787453508, -20124.907210458186, -14802.308655060371, -1406.1035401944566, -4918.635477857051, -7817.768492432653, -3166.906913150181, -2864.733679858885, -20177.076182016874, -8801.535821144083, 3635.891215311434, 2749.130457536037, 4182.123146310228, -4825.562813945153, 2453.1263057144056, 4596.837412933995, 0.0, 0.0, 0.0, 193.0, 0.0, 1.0, 1.0, 0.0, 0.0, 1.0, 1.0, 256.0, 1.0, 1.739490187938121E9, 0.0, 2025-02-13 18:43:07.938
6.0, -20003.8725142327, -20131.858602983786, -14804.521477761446, -1418.642868833884, -4929.632536129062, -7829.12317861595, -3161.9895293700138, -2876.2448282533683, -20162.18992020964, -8771.45037310724, 3671.1622680619084, 2776.1760683269586, 4201.3232947973365, -4809.804834104161, 2474.1592972468493, 4589.617799474931, 0.0, 0.0, 0.0, 193.0, 0.0, 1.0, 1.0, 0.0, 0.0, 1.0, 1.0, 256.0, 1.0, 1.739490187947178E9, 0.0, 2025-02-13 18:43:07.947
8.0, -20002.173781654095, -20126.963570948075, -14795.893704401697, -1406.3941128723757, -4922.278812203266, -7820.808329678575, -3155.105192077779, -2870.209857250435, -20178.529045406467, -8786.291931425563, 3640.4509711803166, 2750.1139342920706, 4179.552695697867, -4826.47923546782, 2475.3662914474357, 4585.326264539512, 0.0, 0.0, 0.0, 193.0, 0.0, 1.0, 1.0, 0.0, 0.0, 1.0, 1.0, 256.0, 1.0, 1.739490187955184E9, 0.0, 2025-02-13 18:43:07.955
10.0, -20005.995929955952, -20132.663265784176, -14798.441803269603, -1414.9548309987583, -4932.091228019146, -7829.1902338493155, -3158.6367677017174, -2874.143764274569, -20164.335687677347, -8768.119963183399, 3678.2701227986963, 2783.93212365295, 4211.3592280577695, -4799.612438632541, 2480.820117094531, 4616.708113754763, 0.0, 0.0, 0.0, 193.0, 0.0, 1.0, 1.0, 0.0, 0.0, 1.0, 1.0, 256.0, 1.0, 1.739490187963245E9, 0.0, 2025-02-13 18:43:07.963
12.0, -20007.20292415654, -20133.244411140015, -14796.139573590706, -1412.1385111973896, -4931.197158240933, -7829.12317861595, -3156.982738612025, -2873.6073224076417, -20180.764219851997, -8787.16364945932, 3643.177884003864, 2754.874855861051, 4183.374843999725, -4820.399560975977, 2468.8619338109415, 4609.533203784609, 0.0, 0.0, 0.0, 193.0, 0.0, 1.0, 1.0, 0.0, 0.0, 1.0, 1.0, 256.0, 1.0, 1.739490187970278E9, 0.0, 2025-02-13 18:43:07.970
14.0, -20001.99496769845, -20132.17152740616, -14792.809163666865, -1408.606935573451, -4927.956155294914, -7824.541071002612, -3148.4667239745527, -2869.606360150142, -20165.006240011007, -8761.414439846807, 3680.8629251555117, 2783.999178886316, 4205.748940199487, -4803.501642167765, 2480.4848409277015, 4612.774206730629, 0.0, 0.0, 0.0, 193.0, 0.0, 1.0, 1.0, 0.0, 0.0, 1.0, 1.0, 256.0, 1.0, 1.73949018797931E9, 0.0, 2025-02-13 18:43:07.979
16.0, -20004.274845632895, -20132.305637872894, -14794.597303223289, -1411.8479385194705, -4931.778303596771, -7831.403056550391, -3155.753392666983, -2874.769613119318, -20179.870150073784, -8786.69426282576, 3638.796942090624, 2752.907902348984, 4182.972512599529, -4817.2479650077785, 2463.8327913084977, 4615.881099209917, 0.0, 0.0, 0.0, 193.0, 0.0, 1.0, 1.0, 0.0, 0.0, 1.0, 1.0, 256.0, 1.0, 1.739490187987387E9, 0.0, 2025-02-13 18:43:07.987
18.0, -19995.53531355087, -20124.30371335789, -14785.16486706315, -1400.0462174470686, -4922.636440114551, -7816.494442998701, -3146.1644942956564, -2866.633578137586, -20161.6087748538, -8761.503846824628, 3676.459631497816, 2780.445251517922, 4203.156137842672, -4799.94771479937, 2485.7375008746985, 4603.989971159694, 0.0, 0.0, 0.0, 193.0, 0.0, 1.0, 1.0, 0.0, 0.0, 1.0, 1.0, 256.0, 1.0, 1.739490187994361E9, 0.0, 2025-02-13 18:43:07.994
20.0, -20002.91138922112, -20134.898440229706, -14796.474849757535, -1409.9927437296801, -4930.012515784802, -7829.033771638128, -3160.938997380614, -2875.127241030603, -20174.773952337975, -8786.135469214376, 3640.4956746692274, 2753.287882004724, 4182.503125965968, -4815.750398129273, 2467.8561053104527, 4604.615820004442, 0.0, 0.0, 0.0, 193.0, 0.0, 1.0, 1.0, 0.0, 0.0, 1.0, 1.0, 256.0, 1.0, 1.739490188003377E9, 0.0, 2025-02-13 18:43:08.003
22.0, -19994.551836794835, -20124.12489940225, -14789.523457231935, -1396.4252348453088, -4917.473187145375, -7815.510966242668, -3154.836971144315, -2861.6267873795973, -20159.574766108366, -8768.835219005969, 3670.9163988729, 2777.114841594081, 4201.502108752979, -4798.204278731857, 2477.780279848609, 4606.4039595608665, 0.0, 0.0, 0.0, 193.0, 0.0, 1.0, 1.0, 0.0, 0.0, 1.0, 1.0, 256.0, 1.0, 1.739490188011396E9, 0.0, 2025-02-13 18:43:08.011
24.0, -20012.67910154809, -20146.14136769073, -14812.948085421096, -1425.0131160036465, -4938.573233911185, -7847.563367791578, -3177.1887155996224, -2879.7764038773066, -20178.23847272855, -8789.354120415941, 3638.349907201518, 2758.674652418453, 4192.337893526304, -4808.1508050144685, 2473.689910613288, 4631.706134284274, 0.0, 0.0, 0.0, 193.0, 0.0, 1.0, 1.0, 0.0, 0.0, 1.0, 1.0, 256.0, 1.0, 1.739490188018415E9, 0.0, 2025-02-13 18:43:08.018
26.0, -19999.223351385994, -20132.50680357299, -14797.681843958122, -1399.867403491426, -4919.417788912987, -7824.608126235978, -3161.140163080712, -2861.5820838906866, -20172.494074403534, -8778.915855755313, 3663.6520819249254, 2778.1653735834807, 4204.609001232267, -4801.8699648225265, 2472.952303046263, 4616.842224221495, 0.0, 0.0, 0.0, 193.0, 0.0, 1.0, 1.0, 0.0, 0.0, 1.0, 1.0, 256.0, 1.0, 1.739490188026507E9, 0.0, 2025-02-13 18:43:08.026
28.0, -20014.109613193228, -20148.84592876982, -14815.02679765544, -1424.9460607702806, -4939.087324033657, -7849.21739688127, -3179.245076089511, -2882.6150754231307, -20184.98869955405, -8789.778803560592, 3644.831913093557, 2758.5852454406318, 4191.9355621261075, -4815.3704184735325, 2488.7773381206202, 4622.5419190575985, 0.0, 0.0, 0.0, 193.0, 0.0, 1.0, 1.0, 0.0, 0.0, 1.0, 1.0, 256.0, 1.0, 1.739490188034496E9, 0.0, 2025-02-13 18:43:08.034
30.0, -19986.840484957753, -20119.341626088815, -14784.628425196222, -1386.5010603071523, -4912.6899138319395, -7817.857899410475, -3150.0984013197904, -2857.6258251220975, -20173.09757150383, -8775.965425487211, 3668.34594826054, 2773.0021206143047, 4197.2105738175605, -4808.039046292191, 2493.650018411877, 4611.544860785587, 0.0, 0.0, 0.0, 193.0, 0.0, 1.0, 1.0, 0.0, 0.0, 1.0, 1.0, 256.0, 1.0, 1.739490188043558E9, 0.0, 2025-02-13 18:43:08.043
32.0, -20013.886095748676, -20148.689466558633, -14812.322236576349, -1421.0568572350571, -4938.170902510989, -7855.609995795488, -3170.3267300518432, -2880.4469562109657, -20183.737001864552, -8784.92847501379, 3650.173980018375, 2758.4287832294444, 4188.269876035438, -4815.795101618183, 2465.10684074245, 4613.57886953102, 0.0, 0.0, 0.0, 193.0, 0.0, 1.0, 1.0, 0.0, 0.0, 1.0, 1.0, 256.0, 1.0, 1.739490188050567E9, 0.0, 2025-02-13 18:43:08.050
34.0, -20000.13977290866, -20130.048111682907, -14790.708099688067, -1393.8324324884932, -4918.121387734579, -7822.127082601439, -3149.4054972416757, -2859.860999567628, -20177.858493072807, -8782.469783123706, 3661.0592795681096, 2768.576475212154, 4194.394254016192, -4814.14107252849, 2464.458640153246, 4608.326209584023, 0.0, 0.0, 0.0, 193.0, 0.0, 1.0, 1.0, 0.0, 0.0, 1.0, 1.0, 256.0, 1.0, 1.739490188058612E9, 0.0, 2025-02-13 18:43:08.058
36.0, -20019.854011518244, -20151.79635903792, -14811.249352842493, -1424.3649154144425, -4939.780228111771, -7848.144513147416, -3166.236360816522, -2884.179697535002, -20179.579577395867, -8776.54657084305, 3655.180770776364, 2764.8660856325732, 4194.327198782826, -4811.794139360683, 2476.7744513481202, 4610.762549729651, 0.0, 0.0, 0.0, 193.0, 0.0, 1.0, 1.0, 0.0, 0.0, 1.0, 1.0, 256.0, 1.0, 1.739490188067635E9, 0.0, 2025-02-13 18:43:08.067
38.0, -20006.979406711987, -20137.334780375335, -14787.98118686452, -1395.41940634482, -4921.764722080794, -7818.0367133661175, -3140.4424477150974, -2862.677319368997, -20168.31429819039, -8768.097611438943, 3661.0369278236544, 2767.190667055925, 4194.170736571638, -4811.078883538114, 2485.0893002854946, 4591.763566942641, 0.0, 0.0, 0.0, 193.0, 0.0, 1.0, 1.0, 0.0, 0.0, 1.0, 1.0, 256.0, 1.0, 1.739490188074754E9, 0.0, 2025-02-13 18:43:08.074
40.0, -20024.81609878732, -20160.021800997474, -14807.091928373806, -1430.511645139652, -4949.167960783, -7849.552673048101, -3159.396727013198, -2886.9513138474604, -20167.28611794545, -8765.035422448567, 3667.764802904702, 2776.9136758939835, 4206.888879166708, -4799.90301131046, 2494.9911230791954, 4629.940346472305, 0.0, 0.0, 0.0, 193.0, 0.0, 1.0, 1.0, 0.0, 0.0, 1.0, 1.0, 256.0, 1.0, 1.739490188082839E9, 0.0, 2025-02-13 18:43:08.082
42.0, -20010.68979629157, -20138.94410597612, -14787.154172319671, -1401.1638046698338, -4926.637402372051, -7814.840413909008, -3139.9507093370808, -2865.828915337195, -20171.778818580966, -8770.712765540215, 3661.886294112956, 2772.4656787473773, 4200.07159710784, -4803.412235189943, 2500.176727792827, 4628.979221460727, 0.0, 0.0, 0.0, 193.0, 0.0, 1.0, 1.0, 0.0, 0.0, 1.0, 1.0, 256.0, 1.0, 1.739490188090769E9, 0.0, 2025-02-13 18:43:08.090
44.0, -20015.607180071733, -20146.543699090922, -14798.955893392074, -1425.2366334481997, -4934.684030375962, -7835.895757185907, -3156.9156833786587, -2885.923133602516, -20158.524234118966, -8761.749716013637, 3674.6491401969365, 2780.64641721802, 4208.699370467588, -4794.426833918909, 2498.366236491947, 4632.354334873478, 0.0, 0.0, 0.0, 193.0, 0.0, 1.0, 1.0, 0.0, 0.0, 1.0, 1.0, 256.0, 1.0, 1.739490188099804E9, 0.0, 2025-02-13 18:43:08.099
46.0, -19996.988176940464, -20124.281361613437, -14778.839323382297, -1395.3970546003645, -4916.154434222512, -7791.192268275294, -3137.626127913729, -2865.6501013815528, -20162.927527776665, -8778.222951677199, 3648.8105236066012, 2759.501666963299, 4195.713006939055, -4798.785424087694, 2466.6714628543214, 4610.315514840546, 0.0, 0.0, 0.0, 193.0, 0.0, 1.0, 1.0, 0.0, 0.0, 1.0, 1.0, 256.0, 1.0, 1.739490188106846E9, 0.0, 2025-02-13 18:43:08.106
48.0, -20014.511944593425, -20144.21911766757, -14804.521477761446, -1425.9742410152246, -4931.174806496479, -7842.131893888938, -3158.949692124092, -2883.3973864790664, -20153.428036383157, -8760.766239257604, 3670.6481779394367, 2773.538562481232, 4204.385483787713, -4790.001188516759, 2476.595637392478, 4606.62747700542, 0.0, 0.0, 0.0, 193.0, 0.0, 1.0, 1.0, 0.0, 0.0, 1.0, 1.0, 256.0, 1.0, 1.739490188114836E9, 0.0, 2025-02-13 18:43:08.114
50.0, -20020.613970829723, -20142.6544955557, -14805.54965800639, -1412.8761187644147, -4928.984335539858, -7832.565347262067, -3159.8661136467595, -2870.7462991173625, -20174.4610279156, -8789.331768671485, 3641.0321165361547, 2757.4676582178663, 4199.781024429921, -4798.271333965223, 2460.4800296402013, 4642.233805922724, 0.0, 0.0, 0.0, 193.0, 0.0, 1.0, 1.0, 0.0, 0.0, 1.0, 1.0, 256.0, 1.0, 1.739490188122918E9, 0.0, 2025-02-13 18:43:08.122
52.0, -20018.222334173006, -20151.639896826735, -14812.41164355417, -1422.733238069205, -4930.079571018168, -7842.064838655572, -3169.2985498068992, -2879.508182943843, -20171.778818580966, -8769.796344017548, 3680.5052972442268, 2785.0720626201705, 4209.88401292372, -4800.7523775997615, 2498.276829514126, 4604.325247326523, 0.0, 0.0, 0.0, 193.0, 0.0, 1.0, 1.0, 0.0, 0.0, 1.0, 1.0, 256.0, 1.0, 1.739490188130932E9, 0.0, 2025-02-13 18:43:08.130
54.0, -20013.7743370264, -20147.393065380224, -14807.382501051725, -1409.2327844181998, -4922.412922669998, -7834.509949029679, -3164.582331726829, -2870.90276132855, -20180.85362682982, -8791.83516405048, 3638.9310525573555, 2750.2703965032574, 4180.022082331429, -4819.974877831326, 2454.780334804098, 4589.841316919484, 0.0, 0.0, 0.0, 193.0, 0.0, 1.0, 1.0, 0.0, 0.0, 1.0, 1.0, 256.0, 1.0, 1.739490188139026E9, 0.0, 2025-02-13 18:43:08.139
56.0, -20025.643113332168, -20159.37360040827, -14823.386350081724, -1428.254118949666, -4936.181597254467, -7849.507969559189, -3176.0264248879466, -2880.1340317885915, -20175.46685641609, -8773.998471975145, 3682.4498990118386, 2788.134251610548, 4211.627448991233, -4803.4569386788535, 2500.7802248931202, 4621.3125731125565, 0.0, 0.0, 0.0, 193.0, 0.0, 1.0, 1.0, 0.0, 0.0, 1.0, 1.0, 256.0, 1.0, 1.73949018814711E9, 0.0, 2025-02-13 18:43:08.147
58.0, -20027.744177310968, -20158.61364109679, -14820.525326791445, -1417.2570606776549, -4931.577137896674, -7841.796617722109, -3174.327692309343, -2874.2555229968457, -20188.766144366997, -8796.081995496988, 3641.7697241031797, 2755.858332617084, 4191.332065025815, -4814.386941717499, 2478.0932042709833, 4633.717791285252, 0.0, 0.0, 0.0, 193.0, 0.0, 1.0, 1.0, 0.0, 0.0, 1.0, 1.0, 256.0, 1.0, 1.739490188155067E9, 0.0, 2025-02-13 18:43:08.155
60.0, -20016.702415550044, -20147.258954913494, -14811.897553431698, -1413.4572641202528, -4925.475111660375, -7832.766512962165, -3166.8622096612708, -2875.0378340527814, -20168.917795290687, -8775.697204553748, 3677.1301838314753, 2781.339321296134, 4207.224155333538, -4803.255772978756, 2481.401262450369, 4610.851956707473, 0.0, 0.0, 0.0, 193.0, 0.0, 1.0, 1.0, 0.0, 0.0, 1.0, 1.0, 256.0, 1.0, 1.739490188162127E9, 0.0, 2025-02-13 18:43:08.162
62.0, -20014.690758549066, -20142.095701944316, -14808.678902230133, -1410.9538687412582, -4923.8434343151375, -7828.810254193575, -3164.8282009158374, -2875.28370324179, -20178.909025062207, -8792.639826850871, 3641.635613636448, 2751.343280237112, 4186.727605668021, -4813.068188794636, 2471.722957101221, 4625.134721414414, 0.0, 0.0, 0.0, 193.0, 0.0, 1.0, 1.0, 0.0, 0.0, 1.0, 1.0, 256.0, 1.0, 1.739490188171104E9, 0.0, 2025-02-13 18:43:08.171
64.0, -20004.073679932797, -20133.065597184373, -14796.78777417991, -1401.7449500256719, -4915.953268522414, -7817.053236610083, -3155.2840060334215, -2871.0815752841922, -20154.880899772754, -8767.136486427366, 3678.448936754339, 2781.384024785045, 4210.733379213021, -4788.816546060628, 2487.0339020531064, 4621.871366723939, 0.0, 0.0, 0.0, 193.0, 0.0, 1.0, 1.0, 0.0, 0.0, 1.0, 1.0, 256.0, 1.0, 1.739490188179138E9, 0.0, 2025-02-13 18:43:08.179
66.0, -20010.466278847012, -20141.22398391056, -14799.827611425831, -1407.7799210286048, -4925.788036082749, -7825.88217566993, -3160.8272386583376, -2879.3964242215666, -20165.967365022585, -8787.16364945932, 3638.014631034688, 2751.253873259291, 4186.101756823273, -4803.814566590138, 2474.4051664358576, 4630.476788339232, 0.0, 0.0, 0.0, 193.0, 0.0, 1.0, 1.0, 0.0, 0.0, 1.0, 1.0, 256.0, 1.0, 1.739490188186239E9, 0.0, 2025-02-13 18:43:08.186
68.0, -19999.424517086092, -20125.242486625015, -14788.249407797983, -1396.51464182313, -4914.187480710445, -7804.916239370852, -3146.1197908067456, -2870.3216159727117, -20151.79635903792, -8768.902274239335, 3679.5441722326486, 2783.909771908495, 4210.30869606837, -4790.7164443393285, 2492.5100794446566, 4637.606994820475, 0.0, 0.0, 0.0, 193.0, 0.0, 1.0, 1.0, 0.0, 0.0, 1.0, 1.0, 256.0, 1.0, 1.739490188194274E9, 0.0, 2025-02-13 18:43:08.194
70.0, -19998.843371730254, -20125.041320924916, -14792.138611333206, -1405.902374494359, -4919.596602868629, -7813.856937152975, -3155.7980961558937, -2881.3633777336336, -20160.13355971975, -8786.180172703287, 3646.3518317165176, 2752.125591293048, 4184.738300411499, -4809.782482359706, 2473.2875792130926, 4614.2717736091345, 0.0, 0.0, 0.0, 193.0, 0.0, 1.0, 1.0, 0.0, 0.0, 1.0, 1.0, 256.0, 1.0, 1.739490188203297E9, 0.0, 2025-02-13 18:43:08.203
72.0, -19980.827865699277, -20105.88587592672, -14770.993861078485, -1382.7906707275715, -4901.625800326562, -7786.118422283938, -3134.0945522897905, -2865.024252536804, -20143.950896734106, -8772.210332418721, 3675.520858230693, 2774.6561497039975, 4202.753806442476, -4791.118775739525, 2473.622855379922, 4606.471014794232, 0.0, 0.0, 0.0, 193.0, 0.0, 1.0, 1.0, 0.0, 0.0, 1.0, 1.0, 256.0, 1.0, 1.739490188210358E9, 0.0, 2025-02-13 18:43:08.210
74.0, -20001.19030489806, -20127.052977925894, -14792.183314822116, -1407.3105343950433, -4923.128178492568, -7815.935649387318, -3156.8709798897485, -2882.3915579785776, -20153.450388127614, -8783.117983712911, 3646.0612590385986, 2745.0400883007155, 4178.345701497281, -4806.496775924776, 2455.3167766710253, 4587.248514562669, 0.0, 0.0, 0.0, 193.0, 0.0, 1.0, 1.0, 0.0, 0.0, 1.0, 1.0, 256.0, 1.0, 1.739490188218419E9, 0.0, 2025-02-13 18:43:08.218
76.0, -19994.797705983845, -20120.727434245044, -14783.175561806627, -1389.2279731306999, -4915.729751077861, -7789.515887441145, -3142.0294215714243, -2865.8512670816503, -20155.059713728395, -8773.30556789703, 3672.6821866848695, 2774.767908426274, 4208.364094300759, -4791.454051906354, 2473.622855379922, 4638.165788431858, 0.0, 0.0, 0.0, 193.0, 0.0, 1.0, 1.0, 0.0, 0.0, 1.0, 1.0, 256.0, 1.0, 1.739490188226387E9, 0.0, 2025-02-13 18:43:08.226
78.0, -20009.68396779108, -20137.603001308802, -14804.92380916164, -1415.6477350768728, -4932.806483841716, -7839.270870598659, -3165.4540497605863, -2886.2360580248906, -20167.08495224535, -8776.725384798692, 3659.0476225671323, 2762.5862076981316, 4196.048283105884, -4801.512336911242, 2489.202021265271, 4634.969488974749, 0.0, 0.0, 0.0, 193.0, 0.0, 1.0, 1.0, 0.0, 0.0, 1.0, 1.0, 256.0, 1.0, 1.739490188235408E9, 0.0, 2025-02-13 18:43:08.235
80.0, -19991.19907512654, -20114.915980686663, -14782.706175173065, -1384.288237606077, -4911.818195798182, -7805.586791704512, -3141.0235930709355, -2864.934845558983, -20167.599042367823, -8769.528123084083, 3676.437279753361, 2776.64545496052, 4201.837384919809, -4798.450147920865, 2510.726751175732, 4624.687686525308, 0.0, 0.0, 0.0, 193.0, 0.0, 1.0, 1.0, 0.0, 0.0, 1.0, 1.0, 256.0, 1.0, 1.739490188242483E9, 0.0, 2025-02-13 18:43:08.242
82.0, -20012.00854921443, -20143.32504788936, -14807.896591174198, -1417.4358746332973, -4935.064010031701, -7840.321402588058, -3164.559979982374, -2886.6830929139965, -20173.343440692835, -8776.07718420949, 3657.661814410903, 2760.5969024416095, 4189.610980702756, -4808.508432925753, 2494.2311637677153, 4609.555555529065, 0.0, 0.0, 0.0, 193.0, 0.0, 1.0, 1.0, 0.0, 0.0, 1.0, 1.0, 256.0, 1.0, 1.739490188250451E9, 0.0, 2025-02-13 18:43:08.250
84.0, -19999.37981359718, -20130.875126227755, -14793.30090204488, -1388.6915312637725, -4916.847338300627, -7815.68978019831, -3149.1819797971225, -2864.3760519476, -20176.003298283016, -8779.720518555703, 3664.2779307696737, 2769.224675801358, 4193.053149348873, -4806.42972069141, 2483.5693816625335, 4609.488500295699, 0.0, 0.0, 0.0, 193.0, 0.0, 1.0, 1.0, 0.0, 0.0, 1.0, 1.0, 256.0, 1.0, 1.739490188258511E9, 0.0, 2025-02-13 18:43:08.258
86.0, -20011.203886414038, -20145.31435314588, -14812.054015642885, -1416.4747496217192, -4933.655850131017, -7844.210606123282, -3165.6105119717736, -2885.6549126690525, -20176.003298283016, -8781.575713345494, 3659.338195245051, 2762.675614675953, 4190.25918129196, -4804.6862846238955, 2474.3828146914025, 4594.870459421928, 0.0, 0.0, 0.0, 193.0, 0.0, 1.0, 1.0, 0.0, 0.0, 1.0, 1.0, 256.0, 1.0, 1.739490188266616E9, 0.0, 2025-02-13 18:43:08.266
88.0, -20003.693700277057, -20132.93148671764, -14798.799431180887, -1392.7148452657277, -4916.3332481781545, -7821.5012337566895, -3153.8981978771926, -2865.694804870463, -20173.924586048674, -8783.207390690732, 3658.0641458110986, 2764.9107891214835, 4195.8694691502415, -4801.914668311438, 2475.008663536151, 4612.528337541621, 0.0, 0.0, 0.0, 193.0, 0.0, 1.0, 1.0, 0.0, 0.0, 1.0, 1.0, 256.0, 1.0, 1.73949018827462E9, 0.0, 2025-02-13 18:43:08.274
90.0, -20012.589694570266, -20145.76138803499, -14813.015140654463, -1420.609822345951, -4930.705419862917, -7844.83645496803, -3168.3821282842314, -2885.3866917355886, -20175.265690715994, -8773.059698708023, 3669.374128505484, 2775.0808328486482, 4199.848079663287, -4803.926325312415, 2497.4498149692795, 4596.792709445084, 0.0, 0.0, 0.0, 193.0, 0.0, 1.0, 1.0, 0.0, 0.0, 1.0, 1.0, 256.0, 1.0, 1.739490188282689E9, 0.0, 2025-02-13 18:43:08.282
92.0, -19996.585845540267, -20125.108376158285, -14789.366995020748, -1385.450528317753, -4904.844451528126, -7814.192213319804, -3147.662061174162, -2861.537380401776, -20175.422152927178, -8787.744794815158, 3648.5870061620485, 2759.814591385674, 4190.102719080773, -4810.073055037625, 2450.7346690576874, 4608.885003195405, 0.0, 0.0, 0.0, 193.0, 0.0, 1.0, 1.0, 0.0, 0.0, 1.0, 1.0, 256.0, 1.0, 1.739490188291657E9, 0.0, 2025-02-13 18:43:08.291
94.0, -20012.433232359082, -20144.174414178662, -14809.21534409706, -1415.4912728656857, -4926.525643649775, -7841.438989810824, -3167.778631183938, -2884.1126423016362, -20165.22975745556, -8774.713727797714, 3662.9591778468107, 2770.0963938351147, 4201.613867475256, -4791.007017017248, 2467.386718676891, 4598.312628068045, 0.0, 0.0, 0.0, 193.0, 0.0, 1.0, 1.0, 0.0, 0.0, 1.0, 1.0, 256.0, 1.0, 1.739490188297792E9, 0.0, 2025-02-13 18:43:08.297
96.0, -20004.028976443886, -20134.741978018523, -14796.40779452417, -1394.4582813332418, -4914.410998154998, -7822.305896557081, -3154.5463984663966, -2865.8512670816503, -20179.780743095966, -8785.442565136262, 3650.3304422295623, 2760.351033252601, 4183.263085277448, -4813.76109287275, 2493.9852945787065, 4586.376796528912, 0.0, 0.0, 0.0, 193.0, 0.0, 1.0, 1.0, 0.0, 0.0, 1.0, 1.0, 256.0, 1.0, 1.739490188306836E9, 0.0, 2025-02-13 18:43:08.306
98.0, -20010.645092802657, -20145.046132212417, -14804.02973938343, -1412.7867117865935, -4929.3643151955985, -7842.087190400028, -3163.1518200816895, -2882.4362614674883, -20169.297774946426, -8768.54464632805, 3671.1175645729977, 2776.8466206606176, 4199.758672685465, -4798.5842583875965, 2482.362387461947, 4589.997779130671, 0.0, 0.0, 0.0, 193.0, 0.0, 1.0, 1.0, 0.0, 0.0, 1.0, 1.0, 256.0, 1.0, 1.739490188314804E9, 0.0, 2025-02-13 18:43:08.314
100.0, -20000.855028731232, -20131.45627158359, -14791.535114232913, -1391.41844408732, -4914.366294666087, -7818.260230810671, -3152.5123897209633, -2868.153496760547, -20185.346327465337, -8790.98579776118, 3646.9106253279006, 2762.720318164864, 4190.035663847407, -4811.101235282568, 2489.939628832296, 4620.8431864789945, 0.0, 0.0, 0.0, 193.0, 0.0, 1.0, 1.0, 0.0, 0.0, 1.0, 1.0, 256.0, 1.0, 1.739490188322792E9, 0.0, 2025-02-13 18:43:08.322
102.0, -20002.397299098648, -20133.467928584567, -14797.368919535747, -1404.0695314490238, -4920.982411024858, -7825.591602992011, -3157.9662153680583, -2879.1952585214685, -20163.59808011032, -8767.717631783204, 3672.0786895845763, 2780.445251517922, 4204.7878151879095, -4794.158612985446, 2484.2846374851033, 4596.837412933995, 0.0, 0.0, 0.0, 193.0, 0.0, 1.0, 1.0, 0.0, 0.0, 1.0, 1.0, 256.0, 1.0, 1.739490188329841E9, 0.0, 2025-02-13 18:43:08.329
104.0, -19997.614025785213, -20125.93539070313, -14789.612864209756, -1391.7537202541496, -4918.523719134774, -7806.547916716089, -3149.6066629417737, -2871.3274444732006, -20177.500865161524, -8788.035367493078, 3640.763895602691, 2755.970091339361, 4185.364149256247, -4812.017656805237, 2484.0834717850057, 4608.728540984219, 0.0, 0.0, 0.0, 193.0, 0.0, 1.0, 1.0, 0.0, 0.0, 1.0, 1.0, 256.0, 1.0, 1.73949018833892E9, 0.0, 2025-02-13 18:43:08.338
106.0, -19999.491572319457, -20129.243448882517, -14793.54677123389, -1402.8848889928925, -4917.11555923409, -7827.469149526257, -3149.4502007305864, -2876.401290464555, -20161.31820217588, -8762.68848928076, 3677.5772187205816, 2783.3062748082016, 4206.464196022057, -4792.549287384664, 2497.203945780271, 4606.023979905126, 0.0, 0.0, 0.0, 193.0, 0.0, 1.0, 1.0, 0.0, 0.0, 1.0, 1.0, 256.0, 1.0, 1.739490188346986E9, 0.0, 2025-02-13 18:43:08.346
108.0, -19998.038708929864, -20127.477661070545, -14789.478753743024, -1395.9111447228368, -4913.6286870990625, -7818.0367133661175, -3146.5668256958515, -2873.1379357740802, -20174.50573140451, -8784.302626169041, 3639.087514768543, 2753.9137308494724, 4185.230038789516, -4807.2120317473455, 2479.367253704936, 4609.712017740252, 0.0, 0.0, 0.0, 193.0, 0.0, 1.0, 1.0, 0.0, 0.0, 1.0, 1.0, 256.0, 1.0, 1.739490188353939E9, 0.0, 2025-02-13 18:43:08.353
110.0, -19993.63541527217, -20124.393120335713, -14787.131820575218, -1394.4359295887864, -4913.695742332428, -7817.88025115493, -3145.8292181288266, -2874.2555229968457, -20159.820635297376, -8761.280329380075, 3676.0573000976206, 2782.1216323520703, 4203.290248309404, -4795.544421141675, 2494.745253890187, 4587.293218051579, 0.0, 0.0, 0.0, 193.0, 0.0, 1.0, 1.0, 0.0, 0.0, 1.0, 1.0, 256.0, 1.0, 1.739490188363031E9, 0.0, 2025-02-13 18:43:08.363
112.0, -19993.05426991633, -20121.44269006761, -14786.193047308094, -1392.6254382879065, -4914.679219088462, -7817.723788943743, -3146.4550669735754, -2874.6802061414965, -20169.18601622415, -8785.911951769824, 3635.801808333613, 2750.672727903453, 4185.051224833873, -4806.385017202499, 2459.0718697395173, 4604.884040937905, 0.0, 0.0, 0.0, 193.0, 0.0, 1.0, 1.0, 0.0, 0.0, 1.0, 1.0, 256.0, 1.0, 1.739490188371032E9, 0.0, 2025-02-13 18:43:08.371
114.0, -19992.13784839366, -20121.867373212262, -14782.773230406432, -1391.1949266427669, -4913.561631865697, -7816.963829632263, -3140.040116314902, -2868.578179905198, -20159.619469597277, -8762.889654980858, 3675.0067681082214, 2779.260609061791, 4207.73824545601, -4789.4870983942865, 2472.304102457059, 4601.2407065916905, 0.0, 0.0, 0.0, 193.0, 0.0, 1.0, 1.0, 0.0, 0.0, 1.0, 1.0, 256.0, 1.0, 1.739490188378074E9, 0.0, 2025-02-13 18:43:08.378
116.0, -20009.840430002267, -20145.716684546078, -14801.302826559882, -1408.4281216178085, -4927.732637850361, -7836.812178708575, -3158.7932299129047, -2878.032967809793, -20177.009126783505, -8782.179210445787, 3636.2711949671743, 2751.253873259291, 4188.716910924543, -4799.277162465712, 2467.2302564657043, 4619.2562126226685, 0.0, 0.0, 0.0, 193.0, 0.0, 1.0, 1.0, 0.0, 0.0, 1.0, 1.0, 256.0, 1.0, 1.73949018838617E9, 0.0, 2025-02-13 18:43:08.386
118.0, -20002.53140956538, -20140.620486810265, -14795.223152068038, -1396.671104034317, -4918.59077436814, -7826.619783236955, -3152.0206513429466, -2867.99703454936, -20175.019821526985, -8756.653518277826, 3682.8969339009445, 2782.7474811968186, 4197.836422662309, -4804.798043346173, 2528.4293327843347, 4568.629511431398, 0.0, 0.0, 0.0, 193.0, 0.0, 1.0, 1.0, 0.0, 0.0, 1.0, 1.0, 256.0, 1.0, 1.739490188395124E9, 0.0, 2025-02-13 18:43:08.395
120.0, -20008.34286312376, -20144.353228134303, -14804.722643461544, -1410.5291855966075, -4926.682105860961, -7844.501178801201, -3164.001186370991, -2881.2963225002677, -20188.27440598898, -8783.944998257757, 3648.0729160395763, 2759.3675564965674, 4186.30292252337, -4816.644467907485, 2490.6325329104106, 4605.733407227208, 0.0, 0.0, 0.0, 193.0, 0.0, 1.0, 1.0, 0.0, 0.0, 1.0, 1.0, 256.0, 1.0, 1.739490188403234E9, 0.0, 2025-02-13 18:43:08.403
122.0, -20001.369118853705, -20134.98784720753, -14795.491373001501, -1395.9781999562026, -4917.517890634285, -7808.134890572416, -3153.808790899371, -2868.2652554828237, -20175.95859479411, -8772.053870207534, 3674.269160541196, 2780.8475829181175, 4207.760597200465, -4800.551211899664, 2496.354579490969, 4600.972485658227, 0.0, 0.0, 0.0, 193.0, 0.0, 1.0, 1.0, 0.0, 0.0, 1.0, 1.0, 256.0, 1.0, 1.739490188410218E9, 0.0, 2025-02-13 18:43:08.410
124.0, -20010.309816635825, -20147.661286313687, -14808.634198741222, -1415.5583280990516, -4927.732637850361, -7846.825760224553, -3165.878732905237, -2882.6597789120415, -20180.495998918534, -8786.381338403386, 3647.9835090617553, 2760.0157570857714, 4193.969570871541, -4811.548270171675, 2487.4138817088465, 4610.539032285098, 0.0, 0.0, 0.0, 193.0, 0.0, 1.0, 1.0, 0.0, 0.0, 1.0, 1.0, 256.0, 1.0, 1.739490188418263E9, 0.0, 2025-02-13 18:43:08.418
126.0, -19998.95513045253, -20133.17735590665, -14792.384480522214, -1386.9257434518033, -4911.080588231157, -7819.534280244623, -3150.1207530642455, -2862.252636224346, -20170.437713913645, -8773.193809174754, 3669.396480249939, 2775.2149433153804, 4201.658570964167, -4800.394749688477, 2492.0630445555503, 4589.841316919484, 0.0, 0.0, 0.0, 193.0, 0.0, 1.0, 1.0, 0.0, 0.0, 1.0, 1.0, 256.0, 1.0, 1.739490188427365E9, 0.0, 2025-02-13 18:43:08.427
128.0, -20019.89871500715, -20154.970306750572, -14818.200745368094, -1419.5369386120963, -4933.991126297847, -7844.948213690307, -3177.6357504887287, -2883.956180090449, -20176.673850616677, -8787.320111670508, 3645.4577619383053, 2758.3617279960786, 4192.069672592839, -4804.775691601717, 2482.1165182729387, 4597.351503056468, 0.0, 0.0, 0.0, 193.0, 0.0, 1.0, 1.0, 0.0, 0.0, 1.0, 1.0, 256.0, 1.0, 1.739490188434332E9, 0.0, 2025-02-13 18:43:08.434
130.0, -20000.00566244193, -20132.573858806358, -14791.155134577171, -1388.4233103303088, -4911.169995208978, -7811.085320840517, -3150.0313460864245, -2863.861961825128, -20169.11896099078, -8782.805059290537, 3659.0699743115874, 2771.5269054802548, 4200.250411063482, -4798.763072343239, 2481.1553932613606, 4586.689720951285, 0.0, 0.0, 0.0, 193.0, 0.0, 1.0, 1.0, 0.0, 0.0, 1.0, 1.0, 256.0, 1.0, 1.739490188442412E9, 0.0, 2025-02-13 18:43:08.442
132.0, -20007.404089856638, -20143.45915835609, -14799.760556192465, -1413.4572641202528, -4927.933803550459, -7833.526472273645, -3158.81558165736, -2885.118470802125, -20165.788551066944, -8780.703995311736, 3648.6093579065036, 2763.4579257318887, 4194.7518819274765, -4800.975895044315, 2464.883323297897, 4589.550744241565, 0.0, 0.0, 0.0, 193.0, 0.0, 1.0, 1.0, 0.0, 0.0, 1.0, 1.0, 256.0, 1.0, 1.739490188450395E9, 0.0, 2025-02-13 18:43:08.450
134.0, -20005.7724125114, -20137.55829781989, -14792.250370055483, -1394.6370952888842, -4916.534413878252, -7819.467225011257, -3147.4832472185194, -2864.4207554365107, -20164.04511499943, -8774.803134775537, 3654.8231428650793, 2770.029338601749, 4199.870431407742, -4796.259676964245, 2476.9756170482183, 4598.29027632359, 0.0, 0.0, 0.0, 193.0, 0.0, 1.0, 1.0, 0.0, 0.0, 1.0, 1.0, 256.0, 1.0, 1.739490188458446E9, 0.0, 2025-02-13 18:43:08.458
136.0, -20016.992988227965, -20153.338629405338, -14809.21534409706, -1422.71088632475, -4934.16994025349, -7846.1552078908935, -3166.5716369833517, -2885.6549126690525, -20173.365792437293, -8775.78661153157, 3655.9630818323, 2769.5599519681873, 4199.40104477418, -4798.830127576605, 2486.5421636750893, 4594.3116658105455, 0.0, 0.0, 0.0, 193.0, 0.0, 1.0, 1.0, 0.0, 0.0, 1.0, 1.0, 256.0, 1.0, 1.739490188466534E9, 0.0, 2025-02-13 18:43:08.466
138.0, -20008.901656735143, -20140.240507154525, -14794.910227645663, -1397.475766834708, -4917.942573778936, -7820.651867467388, -3151.238340287011, -2865.4712874259103, -20178.37258319528, -8775.11605919791, 3656.00778532121, 2768.0176816007715, 4191.488527237002, -4809.827185848616, 2501.4060737378686, 4586.175630828814, 0.0, 0.0, 0.0, 193.0, 0.0, 1.0, 1.0, 0.0, 0.0, 1.0, 1.0, 256.0, 1.0, 1.739490188474547E9, 0.0, 2025-02-13 18:43:08.474
140.0, -20011.896790492152, -20149.136501447738, -14803.672111472144, -1417.7935025445822, -4933.298222219732, -7841.416638066368, -3161.1178113362566, -2886.727796402907, -20169.722458091077, -8769.572826572994, 3668.2565412827184, 2779.640588717531, 4207.850004178286, -4793.666874607429, 2507.2622307851593, 4603.319418826034, 0.0, 0.0, 0.0, 193.0, 0.0, 1.0, 1.0, 0.0, 0.0, 1.0, 1.0, 256.0, 1.0, 1.739490188483586E9, 0.0, 2025-02-13 18:43:08.483
142.0, -19996.205865884527, -20128.975227949053, -14784.650776940678, -1387.931571952292, -4910.275925430766, -7808.559573717067, -3142.945843094092, -2865.1583630035357, -20166.213234211595, -8775.78661153157, 3653.5043899422158, 2767.056556589193, 4198.126995340228, -4795.276200208211, 2498.276829514126, 4610.986067174204, 0.0, 0.0, 0.0, 193.0, 0.0, 1.0, 1.0, 0.0, 0.0, 1.0, 1.0, 256.0, 1.0, 1.739490188489636E9, 0.0, 2025-02-13 18:43:08.489
144.0, -20003.447831088048, -20139.16762342067, -14798.508858502968, -1413.099636208968, -4923.3740476815765, -7830.3078210720805, -3156.1557240671787, -2883.3526829901557, -20155.37263815077, -8758.419306089796, 3672.2575035402187, 2781.227562573858, 4212.655629236177, -4784.860287292038, 2503.618896438944, 4604.749930471174, 0.0, 0.0, 0.0, 193.0, 0.0, 1.0, 1.0, 0.0, 0.0, 1.0, 1.0, 256.0, 1.0, 1.739490188498605E9, 0.0, 2025-02-13 18:43:08.498
146.0, -19992.897807705143, -20124.08019591334, -14783.935521118108, -1387.2163161297221, -4903.548050349718, -7802.949285858785, -3143.236415772011, -2863.124354258103, -20165.296812688925, -8774.132582441876, 3648.2517299952187, 2762.9438356094165, 4199.2669343074485, -4798.04781652067, 2499.2826580146143, 4614.070607909037, 0.0, 0.0, 0.0, 193.0, 0.0, 1.0, 1.0, 0.0, 0.0, 1.0, 1.0, 256.0, 1.0, 1.739490188506696E9, 0.0, 2025-02-13 18:43:08.506
148.0, -20000.229179886483, -20133.914963473675, -14797.145402091195, -1406.8858512503925, -4919.574251124174, -7824.049332624595, -3158.8379334018155, -2879.3293689882007, -20150.768178792976, -8761.481495080174, 3669.3517767610288, 2780.1770305844584, 4214.846100192797, -4783.742700069273, 2492.130099788916, 4609.443796806789, 0.0, 0.0, 0.0, 193.0, 0.0, 1.0, 1.0, 0.0, 0.0, 1.0, 1.0, 256.0, 1.0, 1.739490188513674E9, 0.0, 2025-02-13 18:43:08.513
150.0, -19992.20490362703, -20131.74684426151, -14783.086154828807, -1383.5506300390518, -4909.4042073970095, -7809.632457450922, -3145.560997195363, -2866.90179907105, -20166.548510378423, -8782.067451723511, 3640.562729902593, 2757.7582308957853, 4197.612905217756, -4793.622171118519, 2480.5965996499776, 4606.560421772054, 0.0, 0.0, 0.0, 193.0, 0.0, 1.0, 1.0, 0.0, 0.0, 1.0, 1.0, 256.0, 1.0, 1.739490188521831E9, 0.0, 2025-02-13 18:43:08.521
152.0, -19997.032880429375, -20138.56412632038, -14792.272721799938, -1398.481595335197, -4919.015457512791, -7824.630477980433, -3153.9876048550136, -2878.8376306101836, -20152.735132305042, -8753.792494987547, 3676.0349483531654, 2780.221734073369, 4212.633277491722, -4782.669816335419, 2503.5741929500336, 4589.304875052557, 0.0, 0.0, 0.0, 193.0, 0.0, 1.0, 1.0, 0.0, 0.0, 1.0, 1.0, 256.0, 1.0, 1.739490188530736E9, 0.0, 2025-02-13 18:43:08.530
154.0, -19998.70926126352, -20136.597172808313, -14791.579817721822, -1390.2785051200992, -4915.282716188755, -7820.562460489567, -3153.3617560102653, -2870.545133417265, -20177.478513417067, -8785.911951769824, 3641.568558403082, 2755.8136291281735, 4193.835460404809, -4801.937020055892, 2495.460509712757, 4618.697419011285, 0.0, 0.0, 0.0, 193.0, 0.0, 1.0, 1.0, 0.0, 0.0, 1.0, 1.0, 256.0, 1.0, 1.739490188538779E9, 0.0, 2025-02-13 18:43:08.538
156.0, -19999.40216534164, -20138.787643764932, -14794.440841012103, -1400.0685691915237, -4922.569384881185, -7812.359370274469, -3153.9652531105585, -2874.5684474192203, -20160.602946353312, -8763.291986381053, 3676.884314642467, 2783.507440508299, 4215.583707759823, -4784.4356041473875, 2502.7024749162765, 4599.631380990909, 0.0, 0.0, 0.0, 193.0, 0.0, 1.0, 1.0, 0.0, 0.0, 1.0, 1.0, 256.0, 1.0, 1.739490188545901E9, 0.0, 2025-02-13 18:43:08.545
158.0, -20003.067851432308, -20140.888707743732, -14796.005463123975, -1399.934458724792, -4921.138873236046, -7829.12317861595, -3156.111020578268, -2873.6296741520973, -20172.069391258883, -8784.101460468944, 3635.466532166783, 2752.1032395485927, 4195.333027283315, -4797.980761287304, 2468.459602410746, 4627.839282493506, 0.0, 0.0, 0.0, 193.0, 0.0, 1.0, 1.0, 0.0, 0.0, 1.0, 1.0, 256.0, 1.0, 1.739490188553892E9, 0.0, 2025-02-13 18:43:08.553
160.0, -19995.937644951064, -20135.948972219107, -14790.21636131005, -1398.3027813795545, -4918.59077436814, -7822.082379112528, -3150.1878082976114, -2875.5966276641643, -20165.83325455585, -8758.978099701179, 3679.343006532551, 2784.870896920073, 4214.399065303692, -4792.124604240013, 2520.78503618062, 4598.044407134582, 0.0, 0.0, 0.0, 193.0, 0.0, 1.0, 1.0, 0.0, 0.0, 1.0, 1.0, 256.0, 1.0, 1.73949018856288E9, 0.0, 2025-02-13 18:43:08.562
162.0, -20002.844333987756, -20140.620486810265, -14794.194971823094, -1403.4213308598198, -4925.944498293937, -7829.592565249511, -3155.7310409225274, -2880.089328299681, -20178.730211106566, -8783.430908135284, 3641.277985725163, 2753.801972127196, 4191.913210381653, -4804.328656712611, 2478.3167217155365, 4614.987029431704, 0.0, 0.0, 0.0, 193.0, 0.0, 1.0, 1.0, 0.0, 0.0, 1.0, 1.0, 256.0, 1.0, 1.739490188569903E9, 0.0, 2025-02-13 18:43:08.569
164.0, -19998.083412418775, -20137.960629220084, -14790.462230499057, -1398.3474848684652, -4922.256460458811, -7818.662562210866, -3147.4832472185194, -2873.897895085561, -20166.146178978226, -8759.82746599048, 3683.1428030899533, 2785.876725420562, 4211.3592280577695, -4788.973008271815, 2507.68691392981, 4603.475881037221, 0.0, 0.0, 0.0, 193.0, 0.0, 1.0, 1.0, 0.0, 0.0, 1.0, 1.0, 256.0, 1.0, 1.739490188579007E9, 0.0, 2025-02-13 18:43:08.579
166.0, -20004.721880522, -20143.32504788936, -14799.6935009591, -1407.735217539694, -4927.531472150263, -7827.491501270712, -3163.397689270698, -2880.916342844527, -20174.259862215506, -8778.915855755313, 3644.206064248808, 2757.1770855399473, 4192.6955214375885, -4799.500679910264, 2493.1582800338606, 4599.273753079624, 0.0, 0.0, 0.0, 193.0, 0.0, 1.0, 1.0, 0.0, 0.0, 1.0, 1.0, 256.0, 1.0, 1.739490188586044E9, 0.0, 2025-02-13 18:43:08.586
168.0, -20001.10089792024, -20139.61465830978, -14798.285341058416, -1396.738159267683, -4917.83081505666, -7818.439044766313, -3162.593026470307, -2870.701595628452, -20164.156873721706, -8766.175361415788, 3671.25167503973, 2780.065271862182, 4207.6041349892785, -4793.152784484957, 2488.9338003318076, 4589.9083721528505, 0.0, 0.0, 0.0, 193.0, 0.0, 1.0, 1.0, 0.0, 0.0, 1.0, 1.0, 256.0, 1.0, 1.739490188595026E9, 0.0, 2025-02-13 18:43:08.595
170.0, -20010.823906758298, -20146.27547815746, -14810.6458557422, -1413.9713542427248, -4930.705419862917, -7835.091094385517, -3175.91466616567, -2886.0348923247925, -20181.837103585854, -8790.091727982966, 3638.372258945973, 2760.060460574682, 4198.596381973789, -4802.6299241340075, 2473.041710024084, 4613.891793953395, 0.0, 0.0, 0.0, 193.0, 0.0, 1.0, 1.0, 0.0, 0.0, 1.0, 1.0, 256.0, 1.0, 1.739490188602052E9, 0.0, 2025-02-13 18:43:08.602
172.0, -19999.782144997378, -20133.6020390513, -14792.295073544394, -1395.061778433535, -4918.300201690221, -7812.202908063282, -3154.077011832835, -2869.6510636390526, -20166.10147548932, -8767.315300383008, 3671.8775238844783, 2782.3004463077127, 4212.096835624795, -4787.766014071228, 2496.1310620464164, 4600.4136920468445, 0.0, 0.0, 0.0, 193.0, 0.0, 1.0, 1.0, 0.0, 0.0, 1.0, 1.0, 256.0, 1.0, 1.739490188610112E9, 0.0, 2025-02-13 18:43:08.610
174.0, -20011.427403858594, -20146.70016130211, -14805.773175450942, -1417.055894977557, -4933.8793675755705, -7830.7772077056425, -3168.180962584134, -2886.7501481473623, -20177.36675469479, -8781.575713345494, 3644.7648578601907, 2762.608559442587, 4199.602210474278, -4797.913706053938, 2488.3750067204246, 4614.539994542599, 0.0, 0.0, 0.0, 193.0, 0.0, 1.0, 1.0, 0.0, 0.0, 1.0, 1.0, 256.0, 1.0, 1.739490188619117E9, 0.0, 2025-02-13 18:43:08.619
176.0, -19993.166028638607, -20127.768233748466, -14783.175561806627, -1386.6351707738843, -4913.069893487679, -7803.843355636997, -3143.303471005377, -2866.56652290422, -20160.446484142125, -8765.124829426388, 3662.847419124534, 2773.158582825492, 4206.9559344000745, -4781.194601201368, 2475.1874774917933, 4599.407863546356, 0.0, 0.0, 0.0, 193.0, 0.0, 1.0, 1.0, 0.0, 0.0, 1.0, 1.0, 256.0, 1.0, 1.739490188626233E9, 0.0, 2025-02-13 18:43:08.626
178.0, -20015.853049260742, -20149.158853192195, -14808.254219085482, -1422.6438310913838, -4936.136893765556, -7839.136760131927, -3165.8340294163263, -2890.5946481936753, -20178.28317621746, -8772.098573696443, 3655.7842678766574, 2768.285902534235, 4197.657608706666, -4798.316037454133, 2510.9279168758294, 4588.991950630182, 0.0, 0.0, 0.0, 193.0, 0.0, 1.0, 1.0, 0.0, 0.0, 1.0, 1.0, 256.0, 1.0, 1.739490188634196E9, 0.0, 2025-02-13 18:43:08.634
180.0, -20001.279711875883, -20133.333818117837, -14786.774192663932, -1393.0724731770126, -4912.980486509859, -7804.469204481746, -3142.9011396051815, -2868.667586883019, -20167.979022023563, -8766.912968982813, 3665.8649046260007, 2777.36071078309, 4208.319390811848, -4787.7213105823175, 2496.622800424433, 4601.084244380503, 0.0, 0.0, 0.0, 193.0, 0.0, 1.0, 1.0, 0.0, 0.0, 1.0, 1.0, 256.0, 1.0, 1.739490188642282E9, 0.0, 2025-02-13 18:43:08.642
182.0, -20020.077528962796, -20159.954745764106, -14807.181335351628, -1424.4319706478084, -4936.159245510012, -7840.947251432807, -3165.208180571578, -2891.28755227179, -20171.80117032542, -8765.437753848762, 3662.601549935526, 2770.901056635506, 4203.245544820493, -4793.041025762681, 2503.6412481833995, 4605.24166884919, 0.0, 0.0, 0.0, 193.0, 0.0, 1.0, 1.0, 0.0, 0.0, 1.0, 1.0, 256.0, 1.0, 1.739490188651322E9, 0.0, 2025-02-13 18:43:08.651
184.0, -20010.600389313746, -20147.258954913494, -14794.21732356755, -1399.0180372021243, -4920.155396480012, -7818.796672677598, -3148.9584623525698, -2868.958159560938, -20177.299699461426, -8774.11023069742, 3663.9650063472995, 2776.5560479826986, 4209.1911088456045, -4788.727139082806, 2494.007646323162, 4609.287334595601, 0.0, 0.0, 0.0, 193.0, 0.0, 1.0, 1.0, 0.0, 0.0, 1.0, 1.0, 256.0, 1.0, 1.739490188658288E9, 0.0, 2025-02-13 18:43:08.658
186.0, -20020.16693594062, -20160.044152741928, -14810.042358641907, -1424.8119503035487, -4936.315707721199, -7843.562405534078, -3163.0847648483236, -2889.186488292991, -20177.500865161524, -8770.265730651108, 3662.9368261023556, 2774.0526526037042, 4204.005504131974, -4790.895258294971, 2483.5023264291676, 4588.85784016345, 0.0, 0.0, 0.0, 193.0, 0.0, 1.0, 1.0, 0.0, 0.0, 1.0, 1.0, 256.0, 1.0, 1.739490188666423E9, 0.0, 2025-02-13 18:43:08.666
188.0, -20006.264150889416, -20141.46985309957, -14791.244541554994, -1393.675970277306, -4914.232184199355, -7811.331190029525, -3148.936110608114, -2868.0417380382705, -20177.99260353954, -8774.40080337534, 3656.1418957879423, 2769.895228135017, 4196.204745317072, -4799.90301131046, 2485.4692799412346, 4590.914200653338, 0.0, 0.0, 0.0, 193.0, 0.0, 1.0, 1.0, 0.0, 0.0, 1.0, 1.0, 256.0, 1.0, 1.73949018867441E9, 0.0, 2025-02-13 18:43:08.674
190.0, -20015.495421349457, -20154.590327094833, -14808.03070164093, -1421.0121537461464, -4934.013478042302, -7830.419579794358, -3167.9350933951255, -2886.3925202360774, -20169.655402857712, -8767.918797483302, 3663.9426546028444, 2775.729033437852, 4202.485585509013, -4794.784461830194, 2482.697663628777, 4593.261133821146, 0.0, 0.0, 0.0, 193.0, 0.0, 1.0, 1.0, 0.0, 0.0, 1.0, 1.0, 256.0, 1.0, 1.739490188682486E9, 0.0, 2025-02-13 18:43:08.682
192.0, -20002.799630498845, -20133.6020390513, -14794.127916589729, -1393.7206737662166, -4905.917335261981, -7813.007570863673, -3153.4511629880863, -2866.633578137586, -20171.823522069877, -8782.514486612617, 3643.8037328486125, 2760.194571041414, 4190.415643503147, -4804.105139268057, 2462.558741874545, 4588.008473874149, 0.0, 0.0, 0.0, 193.0, 0.0, 1.0, 1.0, 0.0, 0.0, 1.0, 1.0, 256.0, 1.0, 1.739490188689483E9, 0.0, 2025-02-13 18:43:08.689
194.0, -20015.718938794013, -20147.16954793567, -14816.45730930058, -1423.0685142360348, -4924.7822075822605, -7828.832605938031, -3173.9030091646923, -2886.347816747167, -20166.503806889512, -8767.382355616373, 3665.2390557812523, 2775.505515993299, 4203.580820987323, -4789.464746649832, 2475.7239193587207, 4601.777148458618, 0.0, 0.0, 0.0, 193.0, 0.0, 1.0, 1.0, 0.0, 0.0, 1.0, 1.0, 256.0, 1.0, 1.739490188698524E9, 0.0, 2025-02-13 18:43:08.698
196.0, -20007.068813689806, -20133.490280329024, -14805.393195795203, -1399.2415546466775, -4909.605373097107, -7807.576096961034, -3162.525971236941, -2871.1709822620132, -20174.170455237683, -8788.772975060103, 3638.349907201518, 2757.0653268176707, 4190.8179749033425, -4797.801947331661, 2460.7258988292097, 4616.194023632291, 0.0, 0.0, 0.0, 193.0, 0.0, 1.0, 1.0, 0.0, 0.0, 1.0, 1.0, 256.0, 1.0, 1.739490188706633E9, 0.0, 2025-02-13 18:43:08.706
198.0, -20009.23693290197, -20141.00046646601, -14810.35528306428, -1415.7594937991494, -4923.128178492568, -7824.541071002612, -3166.4151747721644, -2883.9785318349045, -20164.112170232795, -8767.270596894097, 3671.922227373389, 2779.1488503395144, 4203.8490419207865, -4794.292723452178, 2489.202021265271, 4603.900564181872, 0.0, 0.0, 0.0, 193.0, 0.0, 1.0, 1.0, 0.0, 0.0, 1.0, 1.0, 256.0, 1.0, 1.739490188713553E9, 0.0, 2025-02-13 18:43:08.713
200.0, -20007.135868923175, -20137.08891118633, -14802.17454459364, -1403.2648686486327, -4917.495538889831, -7810.750044673687, -3155.6639856891616, -2873.249694496357, -20179.512522162502, -8779.720518555703, 3643.311994470596, 2757.5570651956878, 4187.085233579306, -4807.56965965863, 2492.443024211291, 4600.5925060024865, 0.0, 0.0, 0.0, 193.0, 0.0, 1.0, 1.0, 0.0, 0.0, 1.0, 1.0, 256.0, 1.0, 1.739490188722708E9, 0.0, 2025-02-13 18:43:08.722
202.0, -20005.839467744765, -20137.334780375335, -14800.386405037214, -1412.3396768974874, -4922.122349992079, -7814.125158086438, -3154.9934333555025, -2884.0008835793597, -20156.959612007096, -8755.513579310606, 3675.2973407861405, 2781.0487486182155, 4204.050207620884, -4787.229572204301, 2489.939628832296, 4579.626569703409, 0.0, 0.0, 0.0, 193.0, 0.0, 1.0, 1.0, 0.0, 0.0, 1.0, 1.0, 256.0, 1.0, 1.739490188730642E9, 0.0, 2025-02-13 18:43:08.730
204.0, -20007.605255556733, -20138.050036197907, -14796.921884646641, -1403.6224965599176, -4921.518852891785, -7813.275791797137, -3152.199465298589, -2880.7822323777955, -20178.394934939737, -8780.726347056192, 3644.8766165824672, 2762.742669909319, 4193.902515638175, -4802.115834011535, 2491.9736375777293, 4628.956869716271, 0.0, 0.0, 0.0, 193.0, 0.0, 1.0, 1.0, 0.0, 0.0, 1.0, 1.0, 256.0, 1.0, 1.739490188737755E9, 0.0, 2025-02-13 18:43:08.737
206.0, -20005.928874722587, -20139.279382142948, -14795.513724745957, -1406.8187960170264, -4924.581041882163, -7816.315629043059, -3146.7903431404047, -2883.4644417124323, -20161.407609153703, -8752.92077695379, 3683.858058912523, 2789.3412458111343, 4213.482643781023, -4785.8437640480715, 2497.1145388024497, 4616.596355032487, 0.0, 0.0, 0.0, 193.0, 0.0, 1.0, 1.0, 0.0, 0.0, 1.0, 1.0, 256.0, 1.0, 1.739490188745922E9, 0.0, 2025-02-13 18:43:08.745
208.0, -20006.666482289613, -20140.084044943338, -14793.993806122997, -1406.3941128723757, -4925.475111660375, -7811.510003985168, -3142.6776221606283, -2882.57037193422, -20177.277347716972, -8776.099535953945, 3642.7532008592134, 2755.232483772336, 4184.201858544571, -4803.255772978756, 2474.0475385245727, 4615.523471298632, 0.0, 0.0, 0.0, 193.0, 0.0, 1.0, 1.0, 0.0, 0.0, 1.0, 1.0, 256.0, 1.0, 1.73949018875473E9, 0.0, 2025-02-13 18:43:08.754
210.0, -20006.375909611692, -20144.777911278954, -14793.189143322605, -1408.741046040183, -4928.626707628573, -7811.800576663087, -3139.6377849147066, -2882.2350957673902, -20158.434827141147, -8743.868320449392, 3682.8745821564894, 2784.9156004089837, 4203.446710520591, -4788.525973382709, 2492.5771346780225, 4605.711055482752, 0.0, 0.0, 0.0, 193.0, 0.0, 1.0, 1.0, 0.0, 0.0, 1.0, 1.0, 256.0, 1.0, 1.739490188761856E9, 0.0, 2025-02-13 18:43:08.761
212.0, -20013.01437771492, -20146.677809557656, -14800.02877712593, -1415.737142054694, -4931.487730918852, -7818.416693021857, -3150.5454362088963, -2888.4935842148766, -20179.780743095966, -8771.159800429321, 3650.017517807188, 2764.351995510101, 4189.16394581365, -4801.467633422331, 2493.9852945787065, 4620.619669034442, 0.0, 0.0, 0.0, 193.0, 0.0, 1.0, 1.0, 0.0, 0.0, 1.0, 1.0, 256.0, 1.0, 1.739490188769874E9, 0.0, 2025-02-13 18:43:08.769
214.0, -20001.883208976175, -20133.914963473675, -14791.44570725509, -1404.6283250604065, -4915.327419677666, -7810.727692929232, -3141.3812209822204, -2879.508182943843, -20162.838120798842, -8749.366849585396, 3682.9192856454, 2787.6425132325307, 4208.051169878384, -4784.7261768253065, 2501.1155010599496, 4607.700360739274, 0.0, 0.0, 0.0, 193.0, 0.0, 1.0, 1.0, 0.0, 0.0, 1.0, 1.0, 256.0, 1.0, 1.739490188777931E9, 0.0, 2025-02-13 18:43:08.777
216.0, -20008.588732312768, -20141.514556588478, -14799.157059092173, -1414.9101275098476, -4924.513986648797, -7821.344771545502, -3153.8981978771926, -2888.247715025868, -20177.32205120588, -8774.73607954217, 3641.926186314367, 2758.9428733519167, 4192.44965224858, -4797.980761287304, 2470.3818524339026, 4623.145416157891, 0.0, 0.0, 0.0, 193.0, 0.0, 1.0, 1.0, 0.0, 0.0, 1.0, 1.0, 256.0, 1.0, 1.739490188786977E9, 0.0, 2025-02-13 18:43:08.786
218.0, -20000.318586864305, -20130.048111682907, -14786.774192663932, -1396.9393249677807, -4915.506233633308, -7803.373969003435, -3142.0294215714243, -2874.747261374863, -20159.060675985897, -8751.847893219936, 3676.5490384756376, 2785.541449253732, 4208.386446045214, -4782.42394714641, 2494.3429224899915, 4608.773244473129, 0.0, 0.0, 0.0, 193.0, 0.0, 1.0, 1.0, 0.0, 0.0, 1.0, 1.0, 256.0, 1.0, 1.739490188794014E9, 0.0, 2025-02-13 18:43:08.794
220.0, -20006.666482289613, -20145.850795012808, -14798.754727691976, -1412.5184908531298, -4926.525643649775, -7819.511928500167, -3158.010918856969, -2888.314770259234, -20170.32595519137, -8769.483419595173, 3645.189541004842, 2760.2616262747797, 4189.8792016362195, -4796.0585112641475, 2485.715149130243, 4611.433102063311, 0.0, 0.0, 0.0, 193.0, 0.0, 1.0, 1.0, 0.0, 0.0, 1.0, 1.0, 256.0, 1.0, 1.739490188802019E9, 0.0, 2025-02-13 18:43:08.802
222.0, -19998.77631649689, -20135.434882096637, -14790.685747943611, -1393.5642115550295, -4915.506233633308, -7804.044521337095, -3146.991508840503, -2870.6792438839966, -20160.37942890876, -8754.798323488036, 3668.792983149646, 2781.0487486182155, 4200.295114552393, -4783.742700069273, 2493.3147422450475, 4599.050235635071, 0.0, 0.0, 0.0, 193.0, 0.0, 1.0, 1.0, 0.0, 0.0, 1.0, 1.0, 256.0, 1.0, 1.739490188810005E9, 0.0, 2025-02-13 18:43:08.810
224.0, -20009.147525924152, -20143.816786267376, -14808.589495252312, -1418.1511304558671, -4930.88423381856, -7825.055161125084, -3165.208180571578, -2889.1641365485357, -20177.56792039489, -8774.266692908608, 3647.7823433616572, 2769.828172901651, 4194.707178438566, -4795.365607186032, 2491.9736375777293, 4622.29604986859, 0.0, 0.0, 0.0, 193.0, 0.0, 1.0, 1.0, 0.0, 0.0, 1.0, 1.0, 256.0, 1.0, 1.739490188818068E9, 0.0, 2025-02-13 18:43:08.818
226.0, -19994.328319350283, -20128.84111748232, -14789.031718853917, -1391.2396301316776, -4912.376989409565, -7799.1941927902935, -3144.465761717053, -2869.1369735165804, -20165.967365022585, -8763.247282892142, 3665.1943522923416, 2778.5900567281315, 4197.344684284292, -4791.074072250613, 2490.7666433771424, 4589.52839249711, 0.0, 0.0, 0.0, 193.0, 0.0, 1.0, 1.0, 0.0, 0.0, 1.0, 1.0, 256.0, 1.0, 1.739490188826173E9, 0.0, 2025-02-13 18:43:08.826
228.0, -20004.29719737735, -20142.47568160006, -14803.35918704977, -1412.7643600421382, -4927.553823894718, -7822.372951790447, -3160.8942938917035, -2887.152479547558, -20166.28028944496, -8774.378451630886, 3645.189541004842, 2766.3636525110787, 4195.377730772225, -4789.665912349929, 2466.984387276696, 4619.233860878213, 0.0, 0.0, 0.0, 193.0, 0.0, 1.0, 1.0, 0.0, 0.0, 1.0, 1.0, 256.0, 1.0, 1.739490188834098E9, 0.0, 2025-02-13 18:43:08.834
230.0, -19999.648034530645, -20133.333818117837, -14792.585646222311, -1390.2338016311887, -4913.159300465501, -7802.792823647598, -3143.1917122831005, -2868.153496760547, -20162.391085909734, -8764.029593948078, 3656.2313027657633, 2772.6668444474753, 4196.987056373007, -4789.956485027848, 2488.0844340425056, 4603.274715337124, 0.0, 0.0, 0.0, 193.0, 0.0, 1.0, 1.0, 0.0, 0.0, 1.0, 1.0, 256.0, 1.0, 1.739490188842207E9, 0.0, 2025-02-13 18:43:08.842
232.0, -20016.098918449752, -20151.79635903792, -14809.729434219533, -1423.5826043585068, -4939.042620544747, -7822.55176574609, -3158.3461950237984, -2892.986284850393, -20173.85753081531, -8766.421230604796, 3659.338195245051, 2775.863143904584, 4201.010370374963, -4794.292723452178, 2494.0299980676173, 4614.361180586956, 0.0, 0.0, 0.0, 193.0, 0.0, 1.0, 1.0, 0.0, 0.0, 1.0, 1.0, 256.0, 1.0, 1.739490188849252E9, 0.0, 2025-02-13 18:43:08.849
234.0, -20003.984272954975, -20134.719626274065, -14792.004500866475, -1397.2298976456998, -4917.249669700822, -7809.207774306271, -3141.5153314489526, -2871.28274098429, -20170.16949298018, -8761.526198569083, 3661.9980528352326, 2776.1760683269586, 4200.429225019125, -4794.80681357465, 2498.276829514126, 4609.734369484708, 0.0, 0.0, 0.0, 193.0, 0.0, 1.0, 1.0, 0.0, 0.0, 1.0, 1.0, 256.0, 1.0, 1.739490188858225E9, 0.0, 2025-02-13 18:43:08.858
236.0, -20016.18832542757, -20150.499957859513, -14812.45634704308, -1427.382400915909, -4935.958079809914, -7834.375838562947, -3162.0789363478348, -2891.980456349904, -20169.297774946426, -8761.347384613442, 3662.378032490973, 2777.092489849626, 4205.056036121373, -4788.5483251271635, 2479.30019847157, 4614.182366631314, 0.0, 0.0, 0.0, 193.0, 0.0, 1.0, 1.0, 0.0, 0.0, 1.0, 1.0, 256.0, 1.0, 1.739490188866297E9, 0.0, 2025-02-13 18:43:08.866
238.0, -20005.05715668883, -20134.518460573967, -14796.184277079616, -1400.3591418694427, -4917.83081505666, -7806.369102760447, -3143.0576018163683, -2871.9979968068596, -20172.538777892445, -8767.02472770509, 3651.8727125969785, 2769.872876390562, 4195.73535868351, -4795.745586841773, 2482.295332228581, 4607.566250272543, 0.0, 0.0, 0.0, 193.0, 0.0, 1.0, 1.0, 0.0, 0.0, 1.0, 1.0, 256.0, 1.0, 1.739490188873362E9, 0.0, 2025-02-13 18:43:08.873
240.0, -20020.5245638519, -20154.076236972363, -14816.189088367117, -1428.90231953887, -4935.622803643084, -7833.325306573547, -3165.275235804944, -2893.992113350882, -20170.79534182493, -8754.73126825467, 3670.178791305875, 2784.7591381977963, 4204.988980888007, -4788.6600838494405, 2503.261268527659, 4614.472939309232, 0.0, 0.0, 0.0, 193.0, 0.0, 1.0, 1.0, 0.0, 0.0, 1.0, 1.0, 256.0, 1.0, 1.739490188881392E9, 0.0, 2025-02-13 18:43:08.881
242.0, -20002.307892120825, -20132.327989617348, -14794.530247989924, -1397.2746011346105, -4913.494576632331, -7803.73159691472, -3149.8301803863264, -2874.9707788194155, -20176.919719805686, -8767.404707360829, 3651.8056573636127, 2771.6163124580758, 4197.903477895675, -4794.739758341284, 2491.9959893221844, 4621.759608001663, 0.0, 0.0, 0.0, 193.0, 0.0, 1.0, 1.0, 0.0, 0.0, 1.0, 1.0, 256.0, 1.0, 1.739490188890387E9, 0.0, 2025-02-13 18:43:08.890
244.0, -20002.352595609736, -20134.294943129415, -14805.504954517479, -1416.5194531106297, -4922.6140883700955, -7814.393379019903, -3164.917607893659, -2888.985322592893, -20159.597117852823, -8753.434867076263, 3672.9727593627886, 2788.2013068439137, 4211.940373413608, -4780.479345378798, 2499.2156027812484, 4618.429198077822, 0.0, 0.0, 0.0, 193.0, 0.0, 1.0, 1.0, 0.0, 0.0, 1.0, 1.0, 256.0, 1.0, 1.739490188898395E9, 0.0, 2025-02-13 18:43:08.898
246.0, -19997.882246718676, -20124.706044758088, -14799.917018403652, -1399.867403491426, -4912.086416731646, -7799.73063465722, -3155.9322066226255, -2873.2943979852676, -20165.296812688925, -8771.159800429321, 3643.1555322594086, 2768.3753095120564, 4200.742149441498, -4788.727139082806, 2483.077643284517, 4627.325192371034, 0.0, 0.0, 0.0, 193.0, 0.0, 1.0, 1.0, 0.0, 0.0, 1.0, 1.0, 256.0, 1.0, 1.739490188907436E9, 0.0, 2025-02-13 18:43:08.907
248.0, -20005.548895066848, -20135.36782686327, -14811.428166798136, -1417.6817438223059, -4924.7822075822605, -7814.326323786537, -3166.0575468608795, -2885.833726624695, -20157.94308876313, -8754.06071592101, 3669.9329221168664, 2789.5647632556875, 4216.813053704865, -4773.192676686368, 2489.3361317320027, 4619.457378322766, 0.0, 0.0, 0.0, 193.0, 0.0, 1.0, 1.0, 0.0, 0.0, 1.0, 1.0, 256.0, 1.0, 1.739490188913457E9, 0.0, 2025-02-13 18:43:08.913
250.0, -20001.212656642518, -20132.037416939427, -14803.672111472144, -1402.7507785261607, -4916.556765622708, -7802.658713180866, -3159.396727013198, -2875.8424968531726, -20168.18018772366, -8771.651538807339, 3637.3887821899393, 2760.775716397252, 4190.236829547504, -4794.13626124099, 2480.8648205834415, 4610.3378665850005, 0.0, 0.0, 0.0, 193.0, 0.0, 1.0, 1.0, 0.0, 0.0, 1.0, 1.0, 256.0, 1.0, 1.739490188922575E9, 0.0, 2025-02-13 18:43:08.922
252.0, -19996.9211217071, -20127.857640726288, -14803.113317860762, -1410.0150954741355, -4917.696704589928, -7800.423538735336, -3162.324805536843, -2883.3973864790664, -20155.41734163968, -8760.319204368498, 3665.5519802036265, 2784.6250277310646, 4215.337838570814, -4771.628054574497, 2472.2817507126038, 4623.43598883581, 0.0, 0.0, 0.0, 193.0, 0.0, 1.0, 1.0, 0.0, 0.0, 1.0, 1.0, 256.0, 1.0, 1.739490188929602E9, 0.0, 2025-02-13 18:43:08.929
254.0, -19997.658729274124, -20128.818765737866, -14799.134707347717, -1404.5389180825853, -4918.411960412498, -7795.282637510614, -3156.468648489553, -2881.698653900463, -20161.206443453604, -8781.687472067772, 3629.185691974842, 2753.0867163046264, 4188.538096968901, -4791.52110713972, 2459.0495179950617, 4612.304820097068, 0.0, 0.0, 0.0, 193.0, 0.0, 1.0, 1.0, 0.0, 0.0, 1.0, 1.0, 256.0, 1.0, 1.739490188937624E9, 0.0, 2025-02-13 18:43:08.937
0.0, -20002.464354332013, -20134.294943129415, -14804.07444287234, -1414.284278665099, -4921.07181800268, -7809.2301260507265, -3155.2169508000557, -2884.470270212921, -20156.490225373534, -8756.54175955555, 3676.72785243128, 2788.2683620772796, 4210.666323979655, -4783.809755302639, 2493.2923905005923, 4598.156165856858, 0.0, 0.0, 0.0, 193.0, 0.0, 1.0, 1.0, 0.0, 0.0, 1.0, 1.0, 256.0, 1.0, 1.739490188946697E9, 0.0, 2025-02-13 18:43:08.946
2.0, -20009.281636390882, -20136.172489663662, -14808.969474908052, -1414.5524995985627, -4922.59173662564, -7805.698550426788, -3157.72034617905, -2885.789023135784, -20173.298737203924, -8772.009166718623, 3640.115695013487, 2761.2451030308134, 4192.136727826206, -4796.796118831172, 2485.4469281967795, 4617.959811444261, 0.0, 0.0, 0.0, 193.0, 0.0, 1.0, 1.0, 0.0, 0.0, 1.0, 1.0, 256.0, 1.0, 1.739490188954676E9, 0.0, 2025-02-13 18:43:08.954
4.0, -20008.745194523955, -20134.60786755179, -14809.55062026389, -1412.7643600421382, -4918.3896086680425, -7802.859878880964, -3157.6085874567734, -2882.346854489667, -20153.51744336098, -8742.661326248804, 3678.5830472210705, 2790.6599987339973, 4214.6449344927, -4776.590141843574, 2505.4070359953685, 4615.702285254274, 0.0, 0.0, 0.0, 193.0, 0.0, 1.0, 1.0, 0.0, 0.0, 1.0, 1.0, 256.0, 1.0, 1.739490188961747E9, 0.0, 2025-02-13 18:43:08.961
6.0, -20014.37783412669, -20141.693370544122, -14812.813974954364, -1420.2298426902107, -4925.586870382652, -7816.092111598506, -3159.8661136467595, -2888.6500464260635, -20173.186978481648, -8764.633091048372, 3637.2993752121183, 2761.1109925640812, 4197.2105738175605, -4789.37533967201, 2489.7384631321984, 4637.294070398101, 0.0, 0.0, 0.0, 193.0, 0.0, 1.0, 1.0, 0.0, 0.0, 1.0, 1.0, 256.0, 1.0, 1.739490188969814E9, 0.0, 2025-02-13 18:43:08.969
8.0, -20005.303025877838, -20134.22788789605, -14800.02877712593, -1408.1151971954343, -4917.182614467456, -7799.797689890586, -3144.5328169504187, -2880.5140114443316, -20158.300716674414, -8740.783779714558, 3672.6821866848695, 2787.709568465897, 4215.203728104082, -4777.439508132877, 2491.0125125661507, 4621.379628345922, 0.0, 0.0, 0.0, 193.0, 0.0, 1.0, 1.0, 0.0, 0.0, 1.0, 1.0, 256.0, 1.0, 1.739490188978818E9, 0.0, 2025-02-13 18:43:08.978
10.0, -20018.71407255102, -20140.821652510363, -14814.155079621683, -1425.9071857818587, -4929.431370428964, -7814.728655186732, -3163.4200410151534, -2893.947409861971, -20173.65636511521, -8760.16274215731, 3644.541340415638, 2763.703794920897, 4193.209611560061, -4797.287857209189, 2495.661675412855, 4616.082264910015, 0.0, 0.0, 0.0, 193.0, 0.0, 1.0, 1.0, 0.0, 0.0, 1.0, 1.0, 256.0, 1.0, 1.73949018898584E9, 0.0, 2025-02-13 18:43:08.985
12.0, -20008.901656735143, -20130.450443083104, -14806.846059184798, -1409.1657291848337, -4913.8075010547045, -7796.534335200112, -3157.809753156871, -2880.312845744234, -20157.361943407293, -8749.322146096487, 3672.4586692403163, 2789.8776876780616, 4217.975344416541, -4775.740775554273, 2506.815195896053, 4631.572023817543, 0.0, 0.0, 0.0, 193.0, 0.0, 1.0, 1.0, 0.0, 0.0, 1.0, 1.0, 256.0, 1.0, 1.739490188993871E9, 0.0, 2025-02-13 18:43:08.993
14.0, -20014.936627738076, -20141.961591477586, -14818.446614557102, -1425.8624822929482, -4930.146626251534, -7818.148472088394, -3171.176096341145, -2893.410967995044, -20167.12965573426, -8763.627262547883, 3643.1555322594086, 2766.587169955632, 4197.5905534733, -4785.396729158965, 2491.3030852440697, 4621.91607021285, 0.0, 0.0, 0.0, 193.0, 0.0, 1.0, 1.0, 0.0, 0.0, 1.0, 1.0, 256.0, 1.0, 1.73949018900191E9, 0.0, 2025-02-13 18:43:09.001
16.0, -20006.800592756343, -20127.74588200401, -14807.538963262912, -1405.9247262388142, -4914.835681299649, -7798.568343945545, -3162.4812677480304, -2874.6802061414965, -20166.727324334064, -8757.815808989502, 3664.3002825141293, 2786.50257426531, 4207.02298963344, -4783.005092502248, 2497.4498149692795, 4614.785863731607, 0.0, 0.0, 0.0, 193.0, 0.0, 1.0, 1.0, 0.0, 0.0, 1.0, 1.0, 256.0, 1.0, 1.739490189009899E9, 0.0, 2025-02-13 18:43:09.009
18.0, -20016.076566705295, -20137.804167008897, -14819.966533180062, -1426.443627648786, -4926.6597541165065, -7816.9861813767175, -3175.8923144212145, -2891.8686976276276, -20175.198635482626, -8766.085954437965, 3642.239110736741, 2769.6493589460088, 4194.327198782826, -4793.3315984406, 2496.4663382132458, 4614.539994542599, 0.0, 0.0, 0.0, 193.0, 0.0, 1.0, 1.0, 0.0, 0.0, 1.0, 1.0, 256.0, 1.0, 1.739490189017985E9, 0.0, 2025-02-13 18:43:09.017
20.0, -20002.28554037637, -20119.252219110993, -14801.12401260424, -1399.5991825579624, -4905.202079439411, -7787.97361707373, -3156.7368694230163, -2873.406156707544, -20160.89351903123, -8754.127771154377, 3657.304186499618, 2777.114841594081, 4197.232925562015, -4788.347159427066, 2495.4381579683018, 4591.674159964819, 0.0, 0.0, 0.0, 193.0, 0.0, 1.0, 1.0, 0.0, 0.0, 1.0, 1.0, 256.0, 1.0, 1.739490189025942E9, 0.0, 2025-02-13 18:43:09.025
