%OpenBCI Raw EXG Data
%Number of channels = 16
%Sample Rate = 125 Hz
%Board = OpenBCI_GUI$BoardCytonSerialDaisy
Sample Index, EXG Channel 0, EXG Channel 1, EXG Channel 2, EXG Channel 3, EXG Channel 4, EXG Channel 5, EXG Channel 6, EXG Channel 7, EXG Channel 8, EXG Channel 9, EXG Channel 10, EXG Channel 11, EXG Channel 12, EXG Channel 13, EXG Channel 14, EXG Channel 15, Accel Channel 0, Accel Channel 1, Accel Channel 2, Not Used, Digital Channel 0 (D11), Digital Channel 1 (D12), Digital Channel 2 (D13), Digital Channel 3 (D17), Not Used, Digital Channel 4 (D18), Analog Channel 0, Analog Channel 1, Analog Channel 2, Timestamp, Marker Channel, Timestamp (Formatted)
0.0, 45138.856189114595, 93364.04125261799, -20476.4330955068, -14826.31442860537, -888.5265455873664, 7520.400884199248, -23070.330687800728, -77450.40386323976, 0.0, 0.0, 0.0, 0.0, 0.0, 0.0, 0.0, 0.0, -0.095, 0.289, 0.338, 192.0, 125.0, 8.0, 9.0, 8.0, 10.5, 16.0, 0.0, 0.0, 0.0, 1.738712567473953E9, 0.0, 2025-02-04 18:42:47.473
2.0, 90117.53977746246, 186732.93283378278, -41297.50773876998, -29859.226031211143, -1936.4657326299828, 14915.90022038224, -46470.05903363932, -154894.23631360964, -109561.76931402319, -70458.3311627306, -150392.77379426645, -150304.64086587916, -150365.45996254205, -150338.8390348958, -150374.62417776874, -150352.27243331342, -0.095, 0.289, 0.338, 192.0, 0.0, 0.0, 0.0, 0.0, 0.0, 0.0, 0.0, 0.0, 0.0, 1.738712567482974E9, 0.0, 2025-02-04 18:42:47.482
4.0, 89902.9183272026, 186736.71027859574, -41760.21120073929, -30138.891057835946, -2152.85297070181, 14748.30684045635, -46913.42823665479, -154882.76986870408, -109891.72576567243, -70753.46359651847, -150390.96330296557, -150302.94213330056, -150363.738878219, -150337.00619185047, -150372.76898297895, -150350.55134899038, -0.095, 0.289, 0.338, 192.0, 0.0, 0.0, 0.0, 0.0, 0.0, 0.0, 0.0, 0.0, 0.0, 1.738712567490019E9, 0.0, 2025-02-04 18:42:47.490
6.0, 89685.48055714137, 186740.8229995755, -42225.038078431855, -30419.181933305495, -2370.670720418778, 14578.612396551658, -47356.57392222571, -154871.63869996532, -110233.41688316071, -71054.9215739872, -150388.77283200895, -150300.7293105995, -150361.5037037735, -150334.81572089385, -150370.55616027786, -150348.3832297782, -0.095, 0.289, 0.338, 192.0, 0.0, 0.0, 0.0, 0.0, 0.0, 0.0, 0.0, 0.0, 0.0, 1.738712567498092E9, 0.0, 2025-02-04 18:42:47.498
8.0, 89471.77552840419, 186743.21463623224, -42686.221621778204, -30697.438800029613, -2587.6391038464435, 14407.688606701924, -47790.95772397015, -154858.8982056258, -110575.91266344937, -71360.98401081371, -150386.2470848855, -150298.15885998713, -150358.97795665002, -150332.15586330366, -150368.11982013224, -150345.8351309103, -0.12, 0.432, 0.72, 192.0, 126.0, 32.0, 6.5, 64.0, 11.0, 64.0, 0.0, 0.0, 0.0, 1.738712567506117E9, 0.0, 2025-02-04 18:42:47.506
10.0, 89259.18808688976, 186748.0202612901, -43148.79097328079, -30975.293335353537, -2805.5462605412317, 14235.15549125141, -48222.72637161331, -154848.37053398736, -110915.92740010351, -71669.28162208576, -150383.85544822877, -150295.74487158595, -150356.4522095266, -150329.74187490248, -150365.6387764977, -150343.35408727577, -0.12, 0.432, 0.72, 192.0, 0.0, 0.0, 0.0, 0.0, 0.0, 0.0, 0.0, 0.0, 0.0, 1.738712567515171E9, 0.0, 2025-02-04 18:42:47.515
12.0, 89045.32659594138, 186750.85893283595, -43613.90842365127, -31256.05359745665, -3025.152149814624, 14063.20352115673, -48659.39005129219, -154835.98766755912, -111262.42414264967, -71977.46747463554, -150382.17906739464, -150293.95673202953, -150354.7311252035, -150328.02079057944, -150363.9400439191, -150341.70005818608, -0.12, 0.432, 0.72, 192.0, 0.0, 0.0, 0.0, 0.0, 0.0, 0.0, 0.0, 0.0, 0.0, 1.738712567522204E9, 0.0, 2025-02-04 18:42:47.522
14.0, 88833.85674164972, 186755.2175230047, -44074.93550478644, -31534.95866476997, -3242.8581408093146, 13892.860876662837, -49094.64557107039, -154825.28118196502, -111611.82661197503, -72287.68733593075, -150380.23446562703, -150292.1238889842, -150352.76417169144, -150326.18794753408, -150362.1519043627, -150339.84486339628, -0.12, 0.432, 0.72, 192.0, 0.0, 0.0, 0.0, 0.0, 0.0, 0.0, 0.0, 0.0, 0.0, 1.738712567530249E9, 0.0, 2025-02-04 18:42:47.530
16.0, 88622.27512863578, 186759.8890375959, -44536.29786208843, -31813.662566383195, -3457.63605328036, 13724.015799047447, -49525.542500679796, -154814.82056555993, -111956.95989810943, -72597.50486582576, -150378.11104990376, -150290.0228250054, -150350.730162946, -150324.08688355528, -150360.0955438728, -150337.72144767302, -0.12, 0.432, 0.72, 192.0, 0.0, 0.0, 0.0, 0.0, 0.0, 0.0, 0.0, 0.0, 0.0, 1.738712567538302E9, 0.0, 2025-02-04 18:42:47.538
18.0, 88411.69934412233, 186765.16404928733, -44999.448358946844, -32094.087552319477, -3672.8386488960564, 13553.58374757573, -49957.914645423254, -154804.80698404397, -112300.21563770958, -72904.21550324149, -150378.87100921525, -150290.8274878058, -150351.40071527968, -150324.69038065558, -150360.743744462, -150338.45905524006, -0.074, 0.34600000000000003, 0.842, 192.0, 126.5, 88.0, 5.0, 104.0, 13.0, 40.0, 0.0, 0.0, 0.0, 1.738712567546327E9, 0.0, 2025-02-04 18:42:47.546
20.0, 88199.35777179692, 186767.1310027994, -45466.1304314292, -32377.820596435144, -3891.014026524309, 13382.727012959363, -50393.63955183501, -154791.66415830425, -112644.76777848814, -73213.98832964759, -150375.4958958025, -150287.4300226486, -150348.04795361139, -150321.29291549837, -150357.32392756033, -150335.0392383384, -0.074, 0.34600000000000003, 0.842, 192.0, 0.0, 0.0, 0.0, 0.0, 0.0, 0.0, 0.0, 0.0, 0.0, 1.738712567554408E9, 0.0, 2025-02-04 18:42:47.554
22.0, 87986.32329539339, 186772.2942557686, -45930.82319865504, -32659.541983549832, -4111.357523364726, 13211.84792659854, -50830.996135592, -154781.69528027717, -112992.7173844239, -73523.82821128705, -150373.50659054596, -150285.50777262542, -150346.10335184378, -150319.2812584974, -150355.4016775372, -150332.96052610406, -0.074, 0.34600000000000003, 0.842, 192.0, 0.0, 0.0, 0.0, 0.0, 0.0, 0.0, 0.0, 0.0, 0.0, 1.738712567562435E9, 0.0, 2025-02-04 18:42:47.562
24.0, 87775.72515913549, 186777.85984013794, -46392.31966642376, -32937.19535317366, -4328.504720748034, 13043.271069916615, -51271.12433566146, -154772.19578888366, -113339.97408628155, -73832.68461617049, -150373.88657020172, -150285.8206970478, -150346.4386280106, -150319.68358989758, -150355.8934159152, -150333.4299127376, -0.074, 0.34600000000000003, 0.842, 192.0, 0.0, 0.0, 0.0, 0.0, 0.0, 0.0, 0.0, 0.0, 0.0, 1.738712567571469E9, 0.0, 2025-02-04 18:42:47.571
26.0, 87565.2164298554, 186781.32436052852, -46855.02312839307, -33216.79332456509, -4545.316641964512, 12873.844846945387, -51709.3079339633, -154760.528178278, -113683.47569507071, -74140.53519255343, -150372.03137541193, -150284.0325574914, -150344.65048845418, -150317.85074685226, -150354.06057286984, -150331.64177318118, -0.074, 0.34600000000000003, 0.842, 192.0, 0.0, 0.0, 0.0, 0.0, 0.0, 0.0, 0.0, 0.0, 0.0, 1.738712567577512E9, 0.0, 2025-02-04 18:42:47.577
28.0, 87354.30536917513, 186785.7947094196, -47322.062828786715, -33500.19109251393, -4764.520199837709, 12696.975493070542, -52147.93856715424, -154749.9334514062, -114027.53609747125, -74452.23026898269, -150370.8467329558, -150282.84791503524, -150343.46584599803, -150316.66610439614, -150352.7865234359, -150330.50183421397, -0.06, 0.308, 0.92, 192.0, 127.0, 16.0, 4.5, 80.0, 14.0, 96.0, 0.0, 0.0, 0.0, 1.738712567586534E9, 0.0, 2025-02-04 18:42:47.586
30.0, 87140.57798869348, 186791.3379420445, -47789.14723266927, -33781.06311333932, -4984.237847833378, 12522.43072061905, -52581.85298226512, -154740.38925652378, -114377.78793308591, -74762.42777853344, -150370.75732597796, -150282.6691010796, -150343.21997680902, -150316.50964218494, -150352.65241296918, -150330.30066851387, -0.06, 0.308, 0.92, 192.0, 0.0, 0.0, 0.0, 0.0, 0.0, 0.0, 0.0, 0.0, 0.0, 1.73871256759459E9, 0.0, 2025-02-04 18:42:47.594
32.0, 86927.05177391194, 186794.46718626824, -48252.40948824996, -34059.61055274136, -5200.155699271643, 12350.009363890811, -53015.610935164805, -154728.4757767291, -114729.44792860126, -75071.84297702825, -150369.61738701075, -150281.5738656013, -150341.96827911952, -150315.32499972882, -150351.4454187686, -150329.16072954665, -0.06, 0.308, 0.92, 192.0, 0.0, 0.0, 0.0, 0.0, 0.0, 0.0, 0.0, 0.0, 0.0, 1.738712567601617E9, 0.0, 2025-02-04 18:42:47.601
34.0, 86716.18541672056, 186796.85882292496, -48716.610517097775, -34337.9568264433, -5417.571117588415, 12180.426678708396, -53449.36888806449, -154715.6682271562, -115078.51512175979, -75382.30870751246, -150366.3987358092, -150278.4222696331, -150338.8390348958, -150312.1287002717, -150348.36087803377, -150326.00913357845, -0.06, 0.308, 0.92, 192.0, 0.0, 0.0, 0.0, 0.0, 0.0, 0.0, 0.0, 0.0, 0.0, 1.738712567609668E9, 0.0, 2025-02-04 18:42:47.609
36.0, 86500.0663995822, 186801.70915147176, -49181.77267095717, -34618.71708854641, -5634.718314971723, 12008.51941210263, -53886.1666782101, -154705.54288691794, -115428.18581201862, -75695.94838570934, -150365.70583173106, -150277.6176068327, -150338.05672383987, -150311.2793339824, -150347.46680825553, -150325.24917426697, -0.06, 0.308, 0.92, 192.0, 0.0, 0.0, 0.0, 0.0, 0.0, 0.0, 0.0, 0.0, 0.0, 1.738712567618702E9, 0.0, 2025-02-04 18:42:47.618
38.0, 86285.98139118927, 186805.75481721817, -49647.29245272785, -34898.80679831586, -5852.044326310674, 11837.349753063889, -54322.360971255424, -154694.67993911266, -115780.49400812316, -76011.06327904026, -150364.92352067513, -150276.7682405434, -150337.16265406166, -150310.45231943755, -150346.6844971996, -150324.42215972213, -0.032, 0.28200000000000003, 0.9480000000000001, 192.0, 127.5, 0.0, 4.0, 104.0, 14.5, 80.0, 0.0, 0.0, 0.0, 1.73871256762675E9, 0.0, 2025-02-04 18:42:47.626
40.0, 86073.30454269702, 186810.3369248315, -50110.51000481963, -35175.72256037266, -6066.174038192516, 11668.415268470677, -54753.43671482048, -154684.2193227076, -116133.18218388346, -76327.87690494978, -150363.96239566355, -150275.8294672763, -150336.1344738167, -150309.49119442597, -150345.85748265477, -150323.483386455, -0.032, 0.28200000000000003, 0.9480000000000001, 192.0, 0.0, 0.0, 0.0, 0.0, 0.0, 0.0, 0.0, 0.0, 0.0, 1.738712567633824E9, 0.0, 2025-02-04 18:42:47.633
42.0, 85861.54411572745, 186812.70620974377, -50574.55457145627, -35454.739386408255, -6283.500049531466, 11495.502173364423, -55184.691272341166, -154671.67999406817, -116481.26590028596, -76643.66235061435, -150363.13538111871, -150275.09185970927, -150335.39686624968, -150308.73123511448, -150345.05281985438, -150322.65637191015, -0.032, 0.28200000000000003, 0.9480000000000001, 192.0, 0.0, 0.0, 0.0, 0.0, 0.0, 0.0, 0.0, 0.0, 0.0, 1.73871256764185E9, 0.0, 2025-02-04 18:42:47.641
44.0, 85648.08495617926, 186818.36120109097, -51040.543739860506, -35736.550180500766, -6501.8989446042715, 11322.745540469354, -55621.980800864796, -154662.42637186366, -116833.06000626803, -76959.15722360101, -150361.3472415623, -150273.214313175, -150333.51931971541, -150306.8313368358, -150343.21997680902, -150320.84588060927, -0.032, 0.28200000000000003, 0.9480000000000001, 192.0, 0.0, 0.0, 0.0, 0.0, 0.0, 0.0, 0.0, 0.0, 0.0, 1.738712567650946E9, 0.0, 2025-02-04 18:42:47.650
46.0, 85431.89888380753, 186820.26109936967, -51503.76129195229, -36020.171465894164, -6720.297839677077, 11151.374715730515, -56058.823294499314, -154649.32824961285, -117187.69278379594, -77278.76481756745, -150361.41429679564, -150273.28136840838, -150333.69813367107, -150306.98779904697, -150343.35408727577, -150320.979991076, -0.032, 0.28200000000000003, 0.9480000000000001, 192.0, 0.0, 0.0, 0.0, 0.0, 0.0, 0.0, 0.0, 0.0, 0.0, 1.73871256765791E9, 0.0, 2025-02-04 18:42:47.657
48.0, 85219.13262833747, 186824.50793081618, -51968.90109406723, -36301.33405939747, -6937.2662231047425, 10981.45675438127, -56492.134212509896, -154638.46530180756, -117540.55977351186, -77595.91371964381, -150357.77096244943, -150269.70508929552, -150330.14420630268, -150303.34446470076, -150339.66604944062, -150317.3813602187, -0.011, 0.28, 0.9590000000000001, 192.0, 0.0, 40.0, 4.0, 88.0, 15.0, 40.0, 0.0, 0.0, 0.0, 1.738712567665948E9, 0.0, 2025-02-04 18:42:47.665
50.0, 85006.85811124541, 186830.1405704189, -52432.14099790347, -36576.95342027586, -7150.792437886291, 10813.706912244192, -56925.579240987216, -154629.07756913634, -117892.82326612751, -77912.45912461987, -150359.3355845613, -150271.2250079185, -150331.46295922555, -150304.81967983482, -150341.1859680636, -150318.85657535275, -0.011, 0.28, 0.9590000000000001, 192.0, 0.0, 0.0, 0.0, 0.0, 0.0, 0.0, 0.0, 0.0, 0.0, 1.738712567673984E9, 0.0, 2025-02-04 18:42:47.673
52.0, 84792.4154749412, 186833.62744255393, -52896.36437849574, -36858.00425505689, -7366.889103280199, 10641.933756105156, -57362.39938287728, -154617.63347597522, -118246.00318026582, -78228.0657563288, -150358.3968112942, -150270.39799337366, -150330.50183421397, -150303.94796180105, -150340.2918982854, -150318.00720906345, -0.011, 0.28, 0.9590000000000001, 192.0, 0.0, 0.0, 0.0, 0.0, 0.0, 0.0, 0.0, 0.0, 0.0, 1.738712567682042E9, 0.0, 2025-02-04 18:42:47.682
54.0, 84577.83872817025, 186839.2600821567, -53359.98426198772, -37139.63623519376, -7585.578571030924, 10471.255835444432, -57800.02418756774, -154608.22339155953, -118600.45714383807, -78543.51592582655, -150357.56979674933, -150269.5262753399, -150329.76422664695, -150303.09859551175, -150339.50958722946, -150317.22489800752, -0.011, 0.28, 0.9590000000000001, 192.0, 0.0, 0.0, 0.0, 0.0, 0.0, 0.0, 0.0, 0.0, 0.0, 1.738712567690106E9, 0.0, 2025-02-04 18:42:47.690
56.0, 84366.01124596731, 186842.12110544695, -53822.19598557902, -37418.60835774045, -7798.9036201123745, 10301.181411884, -58235.16794862365, -154596.0416908314, -118951.33482829748, -78859.94957208032, -150357.1451136047, -150269.1239439397, -150329.22778478, -150302.65156062265, -150339.15195931817, -150316.71080788504, -0.011, 0.28, 0.9590000000000001, 192.0, 0.0, 0.0, 0.0, 0.0, 0.0, 0.0, 0.0, 0.0, 0.0, 1.738712567698115E9, 0.0, 2025-02-04 18:42:47.698
58.0, 84155.39075796494, 186848.78192529464, -54286.55347663802, -37698.72041925436, -8012.116910471548, 10132.828072646627, -58671.58575911353, -154587.79389712738, -119302.07840229016, -79175.24327936688, -150356.4969130155, -150268.45339160602, -150328.46782546854, -150301.89160131116, -150338.50375872897, -150316.01790380693, 0.018500000000000003, 0.269, 0.9645, 192.0, 0.5, 64.0, 4.0, 8.0, 15.0, 40.0, 0.0, 0.0, 0.0, 1.738712567707177E9, 0.0, 2025-02-04 18:42:47.707
60.0, 83944.23382809566, 186850.59241659552, -54751.91679619751, -37980.68767555805, -8229.86760495515, 9962.30661419709, -59111.1998690605, -154574.80753359885, -119655.03479898392, -79491.69927736513, -150356.7427822045, -150268.7216125395, -150328.69134291308, -150302.0257117779, -150338.66022094016, -150316.30847648485, 0.018500000000000003, 0.269, 0.9645, 192.0, 0.0, 0.0, 0.0, 0.0, 0.0, 0.0, 0.0, 0.0, 0.0, 1.738712567713195E9, 0.0, 2025-02-04 18:42:47.713
62.0, 83734.23918893805, 186854.81689629756, -55218.48710995759, -38261.64910336126, -8445.852511626783, 9789.818202235485, -59547.77414176156, -154564.10104800476, -120009.7793352341, -79809.31756607504, -150354.6417182257, -150266.6205485607, -150326.74674114547, -150299.99170303246, -150336.60386045027, -150314.27446773942, 0.018500000000000003, 0.269, 0.9645, 192.0, 0.0, 0.0, 0.0, 0.0, 0.0, 0.0, 0.0, 0.0, 0.0, 1.738712567722232E9, 0.0, 2025-02-04 18:42:47.722
64.0, 83521.83056137926, 186858.81785855506, -55681.57055158264, -38540.30830148558, -8660.317499675453, 9620.436682753168, -59983.07436502867, -154553.01458275493, -120361.61814470508, -80122.53256112726, -150353.3453170473, -150265.19003691556, -150325.29387775587, -150298.6282466207, -150335.19570054958, -150312.82160434983, 0.018500000000000003, 0.269, 0.9645, 192.0, 0.0, 0.0, 0.0, 0.0, 0.0, 0.0, 0.0, 0.0, 0.0, 1.738712567730277E9, 0.0, 2025-02-04 18:42:47.730
66.0, 83309.48898905385, 186861.4553644008, -56144.94456588561, -38817.98402285386, -8873.530790034627, 9452.418619682625, -60420.98974239705, -154540.49760585997, -120714.06045127637, -80436.90984689115, -150351.5795292353, -150263.44660084805, -150323.483386455, -150296.86245880873, -150333.4299127376, -150311.03346479338, 0.018500000000000003, 0.269, 0.9645, 192.0, 0.0, 0.0, 0.0, 0.0, 0.0, 0.0, 0.0, 0.0, 0.0, 1.738712567738325E9, 0.0, 2025-02-04 18:42:47.738
68.0, 83094.37580041598, 186865.97041678076, -56611.760748834706, -39100.26420357993, -9088.375757739039, 9280.667815288045, -60858.882768020965, -154530.0816929438, -121067.1733101813, -80756.24921992412, -150350.3948867792, -150262.28431013637, -150322.34344748777, -150295.6778163526, -150332.35702900376, -150309.82647059282, 0.03925, 0.2675, 0.94625, 192.0, 0.5, 112.0, 4.0, 40.0, 14.5, 0.0, 0.0, 0.0, 0.0, 1.738712567745375E9, 0.0, 2025-02-04 18:42:47.745
70.0, 82879.2626117781, 186868.85379181552, -57078.93455969507, -39381.80677673898, -9302.84074578771, 9106.570077725659, -61294.764136643906, -154518.23526838247, -121423.6165790101, -81077.71200868035, -150349.5902239788, -150261.50199908044, -150321.44937770956, -150294.85080180774, -150331.5300144589, -150309.13356651468, 0.03925, 0.2675, 0.94625, 192.0, 0.0, 0.0, 0.0, 0.0, 0.0, 0.0, 0.0, 0.0, 0.0, 1.738712567754415E9, 0.0, 2025-02-04 18:42:47.754
72.0, 82666.09402490784, 186873.43589942885, -57545.12489379942, -39663.706977809314, -9514.914097179664, 8937.881462321457, -61731.628982022885, -154507.95346593304, -121780.95391761708, -81395.77733227937, -150348.76320943394, -150260.67498453558, -150320.60001142026, -150294.00143551844, -150330.6806481696, -150308.3289037143, 0.03925, 0.2675, 0.94625, 192.0, 0.0, 0.0, 0.0, 0.0, 0.0, 0.0, 0.0, 0.0, 0.0, 1.73871256776246E9, 0.0, 2025-02-04 18:42:47.762
74.0, 82454.9147432941, 186877.32510296407, -58008.76712903585, -39943.95314978995, -9728.619125916854, 8770.64571030685, -62167.35388843464, -154496.8670006832, -122134.53616315559, -81710.35578374336, -150348.4279332671, -150260.27265313538, -150320.22003176453, -150293.64380760715, -150330.25596502496, -150307.81481359183, 0.03925, 0.2675, 0.94625, 192.0, 0.0, 0.0, 0.0, 0.0, 0.0, 0.0, 0.0, 0.0, 0.0, 1.738712567769498E9, 0.0, 2025-02-04 18:42:47.769
76.0, 82239.93566512295, 186883.38242571146, -58476.499733507604, -40227.462676461066, -9944.693439566308, 8598.51492625653, -62606.319797792414, -154488.12746860116, -122489.77243778377, -82029.38223235396, -150347.71267744454, -150259.467990335, -150319.43772070858, -150292.83914480676, -150329.5854126913, -150307.09955776925, 0.03925, 0.2675, 0.94625, 192.0, 0.0, 0.0, 0.0, 0.0, 0.0, 0.0, 0.0, 0.0, 0.0, 1.738712567777543E9, 0.0, 2025-02-04 18:42:47.777
78.0, 82024.28603461816, 186886.3105042351, -58946.26634672479, -40509.742857187135, -10161.393602060509, 8428.216985251545, -63043.92225073842, -154476.3704510177, -122849.90374444769, -82348.74395713139, -150349.29965130088, -150261.07731593578, -150321.09174979827, -150294.40376691864, -150331.1723865476, -150308.77593860342, 0.075625, 0.26275000000000004, 0.919125, 192.0, 1.5, 64.0, 4.0, 8.0, 13.5, 112.0, 0.0, 0.0, 0.0, 1.738712567786581E9, 0.0, 2025-02-04 18:42:47.786
80.0, 81814.44785767172, 186888.8138996141, -59413.32839886289, -40790.97250592381, -10376.506790698384, 8259.774239036351, -63479.51304668344, -154463.92052935608, -123206.52582723211, -82668.23979237555, -150345.4327995101, -150257.29987112284, -150317.22489800752, -150290.4698598945, -150327.3725899902, -150304.84203157926, 0.075625, 0.26275000000000004, 0.919125, 192.0, 0.0, 0.0, 0.0, 0.0, 0.0, 0.0, 0.0, 0.0, 0.0, 1.73871256779363E9, 0.0, 2025-02-04 18:42:47.793
82.0, 81603.9167766472, 186892.68075140487, -59879.719898667325, -41072.42567210504, -10592.692863070115, 8091.309141076701, -63916.48965078469, -154452.83406410625, -123562.14208151605, -82984.60638339596, -150344.6951919431, -150256.58461530026, -150316.37553171822, -150289.68754883858, -150326.61263067875, -150304.17147924562, 0.075625, 0.26275000000000004, 0.919125, 192.0, 0.0, 0.0, 0.0, 0.0, 0.0, 0.0, 0.0, 0.0, 0.0, 1.738712567801675E9, 0.0, 2025-02-04 18:42:47.801
84.0, 81389.22827115396, 186896.614658429, -60345.23968043801, -41355.04112899794, -10808.498955786104, 7917.680790147876, -64356.75196132088, -154442.03817153434, -123917.51246661098, -83304.19162561794, -150344.11404658723, -150255.9587664555, -150315.77203461793, -150289.10640348273, -150325.96443008955, -150303.56798214532, 0.075625, 0.26275000000000004, 0.919125, 192.0, 0.0, 0.0, 0.0, 0.0, 0.0, 0.0, 0.0, 0.0, 0.0, 1.738712567809716E9, 0.0, 2025-02-04 18:42:47.809
86.0, 81173.17630924897, 186900.8167863866, -60811.22884884225, -41638.19302775777, -11023.075702557053, 7745.505302608646, -64795.98609161212, -154431.44344466252, -124274.29101160659, -83621.45228641658, -150343.39879076468, -150255.33291761077, -150315.01207530644, -150288.3240924268, -150325.31622950034, -150302.8750780672, 0.075625, 0.26275000000000004, 0.919125, 192.0, 0.0, 0.0, 0.0, 0.0, 0.0, 0.0, 0.0, 0.0, 0.0, 1.738712567818834E9, 0.0, 2025-02-04 18:42:47.818
88.0, 80961.68410321286, 186904.84010038854, -61279.20732250301, -41919.91441487246, -11237.27246967226, 7577.487239538103, -65235.08611143662, -154420.51344162386, -124630.37665252408, -83939.07057512649, -150342.66118319766, -150254.6176617882, -150314.25211599495, -150287.56413311532, -150324.64567716667, -150302.20452573354, 0.1058125, 0.259375, 0.8845624999999999, 192.0, 2.0, 32.0, 4.0, 0.0, 13.0, 72.0, 0.0, 0.0, 0.0, 1.738712567825834E9, 0.0, 2025-02-04 18:42:47.825
90.0, 80748.29199889803, 186909.89159463544, -61747.923403730805, -42203.17807235457, -11451.849216443208, 7407.055188066386, -65671.70508762659, -154410.61161883018, -124987.04343879741, -84259.34872142658, -150342.54942447538, -150254.2600338769, -150313.98389506148, -150287.45237439303, -150324.3327527443, -150301.91395305563, 0.1058125, 0.259375, 0.8845624999999999, 192.0, 0.0, 0.0, 0.0, 0.0, 0.0, 0.0, 0.0, 0.0, 0.0, 1.738712567833847E9, 0.0, 2025-02-04 18:42:47.833
92.0, 80532.03887129294, 186914.3172400376, -62217.5335547368, -42489.59332580487, -11668.3035097484, 7234.075037726765, -66106.26770332667, -154400.3968716141, -125343.97844600421, -84579.62686772668, -150343.4434942536, -150255.13175191067, -150314.83326135078, -150288.25703719343, -150325.2268225225, -150302.8750780672, 0.1058125, 0.259375, 0.8845624999999999, 192.0, 0.0, 0.0, 0.0, 0.0, 0.0, 0.0, 0.0, 0.0, 0.0, 1.738712567842889E9, 0.0, 2025-02-04 18:42:47.842
94.0, 80314.44463902053, 186917.871167406, -62686.0484702645, -42773.43812864282, -11884.176657697757, 7064.782925222269, -66542.41729288308, -154389.31040636427, -125705.5179125688, -84901.17906346072, -150341.96827911952, -150253.88005422117, -150313.46980493903, -150286.8712290372, -150323.81866262184, -150301.48926991096, 0.1058125, 0.259375, 0.8845624999999999, 192.0, 0.0, 0.0, 0.0, 0.0, 0.0, 0.0, 0.0, 0.0, 0.0, 1.738712567849927E9, 0.0, 2025-02-04 18:42:47.849
96.0, 80099.24204340483, 186922.40857153042, -63152.99876368031, -43056.970007058386, -12095.646511989416, 6896.228420284799, -66979.21508302868, -154379.00625217037, -126066.05155063291, -85224.67586096238, -150341.36478201926, -150253.18715014306, -150312.84395609426, -150286.20067670353, -150323.23751726598, -150300.7293105995, 0.1058125, 0.259375, 0.8845624999999999, 192.0, 0.0, 0.0, 0.0, 0.0, 0.0, 0.0, 0.0, 0.0, 0.0, 1.738712567857965E9, 0.0, 2025-02-04 18:42:47.857
98.0, 79885.13468326745, 186925.85074017654, -63623.95001935364, -43340.14425756267, -12308.591581415127, 6727.606860113962, -67416.1693353855, -154367.58451075372, -126422.27130201714, -85543.8364200397, -150341.49889248598, -150253.25420537643, -150312.91101132764, -150286.29008368138, -150323.34927598826, -150300.88577281067, 0.14690625000000002, 0.2776875, 0.8722812499999999, 192.0, 2.5, 112.0, 4.5, 32.0, 13.0, 112.0, 0.0, 0.0, 0.0, 1.73871256786602E9, 0.0, 2025-02-04 18:42:47.866
100.0, 79671.34024755243, 186928.2200250888, -64095.97415876081, -43623.02793538904, -12526.252868920907, 6562.91920696726, -67857.95156454464, -154355.35810653665, -126779.76510283531, -85862.12526108329, -150339.15195931817, -150251.04138267535, -150310.67583688212, -150283.965502258, -150321.09174979827, -150298.60589487624, 0.14690625000000002, 0.2776875, 0.8722812499999999, 192.0, 0.0, 0.0, 0.0, 0.0, 0.0, 0.0, 0.0, 0.0, 0.0, 1.738712567874052E9, 0.0, 2025-02-04 18:42:47.874
102.0, 79456.4058728702, 186931.39397280145, -64566.947766178586, -43907.208014393815, -12742.260127336995, 6394.431757263155, -68298.21387508081, -154343.80225465324, -127137.48242109806, -86183.69980856178, -150338.0343720954, -150249.94614719704, -150309.51354617043, -150282.8255632908, -150319.9294590866, -150297.5777146313, 0.14690625000000002, 0.2776875, 0.8722812499999999, 192.0, 0.0, 0.0, 0.0, 0.0, 0.0, 0.0, 0.0, 0.0, 0.0, 1.73871256788109E9, 0.0, 2025-02-04 18:42:47.881
104.0, 79241.69501563252, 186935.77491471468, -65035.01564681717, -44190.09169222018, -12957.976813075164, 6226.436045937067, -68737.33624664978, -154333.2745830148, -127494.55153877159, -86503.32975427268, -150336.26858428342, -150248.15800764062, -150307.70305486955, -150281.05977547882, -150318.18602301908, -150295.81192681933, 0.14690625000000002, 0.2776875, 0.8722812499999999, 192.0, 0.0, 0.0, 0.0, 0.0, 0.0, 0.0, 0.0, 0.0, 0.0, 1.738712567890157E9, 0.0, 2025-02-04 18:42:47.890
106.0, 79029.44285028492, 186938.99356591626, -65502.256512910906, -44470.20375373409, -13173.380574390958, 6061.39076487908, -69174.87164436241, -154321.65167589806, -127848.9831505994, -86820.16573192665, -150335.41921799412, -150247.39804832914, -150306.96544730253, -150280.1657057006, -150317.40371196315, -150294.89550529665, 0.14690625000000002, 0.2776875, 0.8722812499999999, 192.0, 0.0, 0.0, 0.0, 0.0, 0.0, 0.0, 0.0, 0.0, 0.0, 1.738712567898193E9, 0.0, 2025-02-04 18:42:47.898
108.0, 78814.32966164705, 186944.04506016316, -65973.99007964016, -44755.03203332806, -13390.639530496543, 5894.065605886652, -69616.65387352156, -154311.88396357108, -128202.81126532689, -87139.39334623735, -150335.44156973858, -150247.35334484023, -150306.85368858025, -150280.14335395617, -150317.3813602187, -150294.85080180774, 0.197453125, 0.29084374999999996, 0.885140625, 192.0, 3.5, 96.0, 4.5, 64.0, 14.0, 8.0, 0.0, 0.0, 0.0, 1.738712567905227E9, 0.0, 2025-02-04 18:42:47.905
110.0, 78597.87536834185, 186945.6767375084, -66446.0812742807, -45040.3296995556, -13606.199754023524, 5723.588850926024, -70058.4361026807, -154298.67408259798, -128560.50623184518, -87458.75507101478, -150334.4357412381, -150246.36986808418, -150305.80315659085, -150279.13752545568, -150316.3308282293, -150293.88967679616, 0.197453125, 0.29084374999999996, 0.885140625, 192.0, 0.0, 0.0, 0.0, 0.0, 0.0, 0.0, 0.0, 0.0, 0.0, 1.738712567913267E9, 0.0, 2025-02-04 18:42:47.913
112.0, 78382.73982795952, 186948.20248463185, -66914.57383806394, -45324.53213030483, -13818.854250771315, 5556.755430311612, -70497.4914190163, -154286.4253266365, -128915.8766169401, -87780.12845279319, -150331.06062782535, -150243.03945816035, -150302.53980190036, -150275.80711553182, -150313.04512179436, -150290.6710255946, 0.197453125, 0.29084374999999996, 0.885140625, 192.0, 0.0, 0.0, 0.0, 0.0, 0.0, 0.0, 0.0, 0.0, 0.0, 1.738712567922325E9, 0.0, 2025-02-04 18:42:47.922
114.0, 78170.17473818955, 186954.68449052388, -67384.69807919241, -45606.54409009744, -14031.419340541284, 5392.134832398276, -70936.43497662962, -154277.99871897683, -129273.12454856928, -88098.86432872586, -150331.5747179478, -150243.55354828283, -150302.91978155612, -150276.209446932, -150313.55921191684, -150291.09570873925, 0.197453125, 0.29084374999999996, 0.885140625, 192.0, 0.0, 0.0, 0.0, 0.0, 0.0, 0.0, 0.0, 0.0, 0.0, 1.738712567929373E9, 0.0, 2025-02-04 18:42:47.929
116.0, 77954.63686640703, 186958.05960393665, -67855.35876218781, -45890.43359642429, -14246.95721232381, 5221.725132671015, -71375.71381040977, -154266.77814326028, -129631.46771567676, -88417.84607384754, -150330.8371103808, -150242.88299594916, -150302.20452573354, -150275.5165428539, -150312.79925260536, -150290.3804529167, 0.197453125, 0.29084374999999996, 0.885140625, 192.0, 0.0, 0.0, 0.0, 0.0, 0.0, 0.0, 0.0, 0.0, 0.0, 1.738712567937396E9, 0.0, 2025-02-04 18:42:47.937
118.0, 77736.88617192343, 186962.7758220167, -68324.6783405159, -46177.4523469749, -14462.875063762078, 5052.6341858666165, -71814.99264418992, -154256.8539687221, -129990.41437988453, -88740.13587714863, -150331.01592433645, -150242.79358897134, -150302.13747050017, -150275.471839365, -150312.84395609426, -150290.3804529167, 0.197453125, 0.29084374999999996, 0.885140625, 192.0, 0.0, 0.0, 0.0, 0.0, 0.0, 0.0, 0.0, 0.0, 0.0, 1.738712567945429E9, 0.0, 2025-02-04 18:42:47.945
120.0, 77524.43284087573, 186965.41332786242, -68795.18256130011, -46461.699481213036, -14675.998947143431, 4885.979579207848, -72251.9021930578, -154244.76167497179, -130349.78572723696, -89062.06805253841, -150330.99357259198, -150242.88299594916, -150302.226877478, -150275.5165428539, -150312.91101132764, -150290.5369151279, 0.302, 0.31, 0.914, 192.0, 4.5, 56.0, 4.5, 88.0, 14.0, 72.0, 0.0, 0.0, 0.0, 1.738712567954485E9, 0.0, 2025-02-04 18:42:47.954
122.0, 77314.1029255513, 186970.0401389647, -69263.27279368315, -46743.82319972792, -14888.228760746571, 4720.330801049567, -72688.61057622559, -154234.65868647798, -130706.98895537722, -89379.95456218178, -150328.95956384655, -150240.89369069264, -150300.25992396593, -150273.54958934183, -150310.92170607112, -150288.45820289353, 0.302, 0.31, 0.914, 192.0, 0.0, 0.0, 0.0, 0.0, 0.0, 0.0, 0.0, 0.0, 0.0, 1.738712567961525E9, 0.0, 2025-02-04 18:42:47.961
124.0, 77099.97321366945, 186972.54353434368, -69732.59237201123, -47026.17043568736, -15102.403176117323, 4553.743249624164, -73131.84566877433, -154222.6557997055, -131064.75097712888, -89700.61268813763, -150328.5348807019, -150240.46900754797, -150299.90229605464, -150273.19196143057, -150310.54172641537, -150288.14527847114, 0.302, 0.31, 0.914, 192.0, 0.0, 0.0, 0.0, 0.0, 0.0, 0.0, 0.0, 0.0, 0.0, 1.738712567969577E9, 0.0, 2025-02-04 18:42:47.969
126.0, 76884.81532154266, 186978.1761739464, -70202.76131662862, -47311.89278505955, -15314.945914142838, 4386.328683653914, -73575.68425842337, -154213.8492123901, -131425.19520821515, -90020.51085478197, -150328.3784184907, -150240.22313835897, -150299.49996465445, -150272.87903700818, -150310.25115373745, -150287.89940928214, 0.302, 0.31, 0.914, 192.0, 0.0, 0.0, 0.0, 0.0, 0.0, 0.0, 0.0, 0.0, 0.0, 1.738712567978613E9, 0.0, 2025-02-04 18:42:47.978
128.0, 76672.33963875052, 186981.30541817014, -70674.36077289114, -47597.8833553652, -15526.348713201132, 4220.478739795535, -74016.66182478212, -154202.36041574008, -131784.47714858977, -90341.01251852662, -150328.84780512427, -150240.71487673698, -150300.03640652137, -150273.30372015282, -150310.74289211546, -150288.34644417124, 0.302, 0.31, 0.914, 192.0, 0.0, 0.0, 0.0, 0.0, 0.0, 0.0, 0.0, 0.0, 0.0, 1.738712567985662E9, 0.0, 2025-02-04 18:42:47.985
130.0, 76461.38387458133, 186983.67470308242, -71145.26732507555, -47882.75633844809, -15740.1655006606, 4056.215769793483, -74452.20791723824, -154189.95519756738, -132141.00982439637, -90659.05549038119, -150327.19377603458, -150239.01614415838, -150298.29297045385, -150271.58263582978, -150309.04415953686, -150286.6700633371, 0.324, 0.29, 0.886, 192.0, 5.0, 16.0, 4.5, 8.0, 13.5, 88.0, 0.0, 0.0, 0.0, 1.738712567993717E9, 0.0, 2025-02-04 18:42:47.993
132.0, 76246.98594176602, 186986.4463193949, -71618.74432787232, -48169.26099887622, -15955.323392787384, 3889.1811834789737, -74891.71026846294, -154178.15347649498, -132502.41518049422, -90979.06541574781, -150324.64567716667, -150236.49039703494, -150295.6778163526, -150269.1239439397, -150306.6301711357, -150284.1666679581, 0.324, 0.29, 0.886, 192.0, 0.0, 0.0, 0.0, 0.0, 0.0, 0.0, 0.0, 0.0, 0.0, 1.738712568001824E9, 0.0, 2025-02-04 18:42:48.001
134.0, 76031.42571823904, 186990.2461159523, -72090.3214323904, -48453.41872613654, -16171.285947714561, 3718.2797453736957, -75331.86082027684, -154167.40228741197, -132863.82053659207, -91300.12587310385, -150323.79631087737, -150235.68573423455, -150294.76139482993, -150268.0734119503, -150305.66904612412, -150283.3173016688, 0.324, 0.29, 0.886, 192.0, 0.0, 0.0, 0.0, 0.0, 0.0, 0.0, 0.0, 0.0, 0.0, 1.738712568010824E9, 0.0, 2025-02-04 18:42:48.010
136.0, 75815.28434935622, 186992.883621798, -72558.99281012926, -48734.98365104004, -16380.073592671586, 3551.9157113928454, -75767.45161622186, -154155.35469715056, -133221.96253799947, -91616.62657459099, -150323.19281377707, -150235.0151819009, -150294.15789772963, -150267.40285961662, -150304.88673506817, -150282.64674933514, 0.324, 0.29, 0.886, 192.0, 0.0, 0.0, 0.0, 0.0, 0.0, 0.0, 0.0, 0.0, 0.0, 1.738712568016853E9, 0.0, 2025-02-04 18:42:48.016
138.0, 75599.47825664023, 186996.5940113776, -73027.86535356824, -49018.64963992234, -16588.23538878386, 3385.3058082229863, -76204.02588892292, -154144.55880457864, -133572.39318756977, -91919.96209859397, -150320.30943874235, -150232.1094551217, -150291.1851157171, -150264.5194845819, -150302.15982224463, -150279.85278127823, 0.324, 0.29, 0.886, 192.0, 0.0, 0.0, 0.0, 0.0, 0.0, 0.0, 0.0, 0.0, 0.0, 1.738712568025911E9, 0.0, 2025-02-04 18:42:48.025
140.0, 75382.86750112385, 187000.81849107964, -73500.69415577581, -49305.64603872848, -16798.98998725295, 3212.973858472569, -76642.61181862495, -154134.20994689583, -133931.4069070109, -92237.98271870408, -150319.90710734215, -150231.75182721042, -150290.8721912947, -150264.1618566706, -150301.7798425889, -150279.40574638912, 0.366, 0.296, 0.864, 192.0, 5.5, 56.0, 4.5, 32.0, 13.5, 0.0, 0.0, 0.0, 0.0, 1.738712568033929E9, 0.0, 2025-02-04 18:42:48.033
142.0, 75168.17899563063, 187002.71838935834, -73974.93111788406, -49593.22358289047, -17012.292684589946, 3039.658431966118, -77079.87899540413, -154121.55885953413, -134294.198071265, -92561.39010922791, -150318.63305790818, -150230.58953649874, -150289.6204936052, -150262.95486247, -150300.5728483883, -150278.221103933, 0.366, 0.296, 0.864, 192.0, 0.0, 0.0, 0.0, 0.0, 0.0, 0.0, 0.0, 0.0, 0.0, 1.738712568041979E9, 0.0, 2025-02-04 18:42:48.041
144.0, 74952.93169652602, 187005.24413648178, -74444.98830377917, -49881.18110670819, -17223.382559225865, 2870.0310432947927, -77512.85463724789, -154109.4218622949, -134655.35755817386, -92880.75183400534, -150316.53199392938, -150228.37671379765, -150287.4300226486, -150260.83144674677, -150298.40472917614, -150276.00828123192, 0.366, 0.296, 0.864, 192.0, 0.0, 0.0, 0.0, 0.0, 0.0, 0.0, 0.0, 0.0, 0.0, 1.738712568050015E9, 0.0, 2025-02-04 18:42:48.050
146.0, 74737.8408596326, 187007.05462778267, -74914.68786176298, -50167.52930492513, -17434.718303050795, 2703.0858639581043, -77946.03144479173, -154096.9719406333, -135019.24395790626, -93199.44300644912, -150314.27446773942, -150226.1638910966, -150285.10544122523, -150258.57392055678, -150296.236609964, -150273.84016201977, 0.366, 0.296, 0.864, 192.0, 0.0, 0.0, 0.0, 0.0, 0.0, 0.0, 0.0, 0.0, 0.0, 1.738712568058093E9, 0.0, 2025-02-04 18:42:48.058
148.0, 74525.05225241807, 187010.87677608454, -75387.42725699273, -50454.95038687592, -17648.378628299073, 2531.178597352338, -78381.62224073676, -154086.55602771713, -135384.0020756724, -93517.03894341456, -150311.68166538258, -150223.54873699532, -150282.51263886841, -150255.9587664555, -150293.64380760715, -150271.24735966296, 0.366, 0.296, 0.864, 192.0, 0.0, 0.0, 0.0, 0.0, 0.0, 0.0, 0.0, 0.0, 0.0, 1.738712568066128E9, 0.0, 2025-02-04 18:42:48.066
150.0, 74309.290863191, 187015.16831101995, -75860.79250106723, -50742.68439324909, -17861.90484308062, 2359.8748278468643, -78815.91663550337, -154076.54244620114, -135748.87195216084, -93837.42884843695, -150312.19575550506, -150223.99577188442, -150282.93732201308, -150256.3610978557, -150294.09084249625, -150271.7614497854, 0.384, 0.272, 0.86, 192.0, 6.0, 0.0, 4.0, 64.0, 13.0, 112.0, 0.0, 0.0, 0.0, 1.738712568073163E9, 0.0, 2025-02-04 18:42:48.073
152.0, 74093.93180536412, 187019.12456978855, -76332.23549511857, -51029.92666124424, -18074.313470639405, 2192.0579304764187, -79251.84270761523, -154066.0594780516, -136115.6193751835, -94155.58357901378, -150312.53103167188, -150224.3086963068, -150283.29494992434, -150256.67402227808, -150294.35906342973, -150272.05202246332, 0.384, 0.272, 0.86, 192.0, 0.0, 0.0, 0.0, 0.0, 0.0, 0.0, 0.0, 0.0, 0.0, 1.738712568081204E9, 0.0, 2025-02-04 18:42:48.081
154.0, 73875.64466901358, 187021.18093027844, -76803.14204730297, -51314.62083037148, -18288.309072054515, 2024.1516261281522, -79690.80861697301, -154053.7660186012, -136478.5670016488, -94473.38068167934, -150309.5806014038, -150221.44767301652, -150280.3221679118, -150253.74594375445, -150291.5203918839, -150269.03453696187, 0.384, 0.272, 0.86, 192.0, 0.0, 0.0, 0.0, 0.0, 0.0, 0.0, 0.0, 0.0, 0.0, 1.738712568090276E9, 0.0, 2025-02-04 18:42:48.090
156.0, 73655.63644834, 187023.61727042406, -77278.9436315231, -51599.806737876745, -18501.298844969137, 1858.6816619255142, -80127.3158344407, -154041.83018706206, -136845.18031420474, -94790.03784537766, -150307.30072346935, -150219.27955380434, -150278.10934521072, -150251.42136233108, -150289.218162205, -150266.77701077188, 0.384, 0.272, 0.86, 192.0, 0.0, 0.0, 0.0, 0.0, 0.0, 0.0, 0.0, 0.0, 0.0, 1.738712568097298E9, 0.0, 2025-02-04 18:42:48.097
158.0, 73439.47272771272, 187027.75234314828, -77750.40897731889, -51884.43385177063, -18711.762870760307, 1692.0941105001107, -80564.3147902864, -154031.59308810154, -137210.20665290437, -95106.58325035372, -150306.38430194667, -150218.18431832604, -150277.03646147688, -150250.39318208615, -150288.0782232378, -150265.7711822714, 0.384, 0.272, 0.86, 192.0, 0.0, 0.0, 0.0, 0.0, 0.0, 0.0, 0.0, 0.0, 0.0, 1.738712568105344E9, 0.0, 2025-02-04 18:42:48.105
160.0, 73228.67342575472, 187031.3509740056, -78217.67219515708, -52168.032785419564, -18922.584524462764, 1525.4618555857965, -80999.3691443645, -154020.75249204072, -137576.10470963773, -95423.41922800771, -150305.55728740184, -150217.4690625035, -150276.25415042092, -150249.47676056347, -150287.34061567078, -150264.966519471, 0.402, 0.246, 0.884, 192.0, 6.0, 72.0, 3.5, 88.0, 13.5, 80.0, 0.0, 0.0, 0.0, 1.738712568114372E9, 0.0, 2025-02-04 18:42:48.114
162.0, 73020.35516743126, 187034.904901374, -78688.01995373011, -52453.64337606948, -19132.668570598194, 1358.4272692712868, -81435.76460310991, -154009.82248900205, -137944.01442337208, -95741.52925509564, -150304.70792111254, -150216.53028923634, -150275.38243238718, -150248.62739427417, -150286.468897637, -150264.0724496928, 0.402, 0.246, 0.884, 192.0, 0.0, 0.0, 0.0, 0.0, 0.0, 0.0, 0.0, 0.0, 0.0, 1.738712568121448E9, 0.0, 2025-02-04 18:42:48.121
164.0, 72807.6336154501, 187038.57058746467, -79156.82544193571, -52738.67282136355, -19345.032494668067, 1189.582191655897, -81871.53421301059, -153999.0042446857, -138312.77350339576, -96061.44977348445, -150304.0820722678, -150215.9491438805, -150274.73423179798, -150248.09095240725, -150285.8654005367, -150263.58071131477, 0.402, 0.246, 0.884, 192.0, 0.0, 0.0, 0.0, 0.0, 0.0, 0.0, 0.0, 0.0, 0.0, 1.738712568129457E9, 0.0, 2025-02-04 18:42:48.129
166.0, 72589.94997619987, 187041.4986659883, -79625.89915107479, -53023.74697014654, -19555.317706503596, 1024.0675239643483, -82304.28633740978, -153987.6942619913, -138681.0855485303, -96379.33628312782, -150302.3833396892, -150214.205707813, -150273.03549921938, -150246.39221982865, -150284.3231301693, -150261.8596269917, 0.402, 0.246, 0.884, 192.0, 0.0, 0.0, 0.0, 0.0, 0.0, 0.0, 0.0, 0.0, 0.0, 1.738712568137521E9, 0.0, 2025-02-04 18:42:48.137
168.0, 72374.81443581753, 187043.71148868938, -80091.3518776121, -53303.83667991599, -19763.68066831597, 861.3021208408023, -82729.84120009438, -153975.42315428535, -139044.45785814023, -96691.076063046, -150299.4329094211, -150211.34468452272, -150270.12977244018, -150243.46414130498, -150281.46210687901, -150258.97625195698, 0.402, 0.246, 0.884, 192.0, 0.0, 0.0, 0.0, 0.0, 0.0, 0.0, 0.0, 0.0, 0.0, 1.738712568145548E9, 0.0, 2025-02-04 18:42:48.145
170.0, 72160.26004079105, 187047.08660210212, -80557.5645634609, -53581.55710477318, -19972.66947897309, 698.7602351618094, -83159.53113550319, -153964.38139252443, -139408.61247880608, -96996.02091264975, -150296.95186578654, -150208.97539961047, -150267.62637706118, -150241.00544941492, -150278.8693045222, -150256.5175600669, 0.41600000000000004, 0.274, 0.8220000000000001, 192.0, 6.5, 0.0, 4.0, 72.0, 12.5, 88.0, 0.0, 0.0, 0.0, 1.738712568153603E9, 0.0, 2025-02-04 18:42:48.153
172.0, 71949.4830905775, 187051.06521261518, -81024.31369117662, -53863.122029676684, -20184.98869955405, 531.8821110584869, -83593.42319886961, -153953.80901739706, -139778.53384954142, -97308.40889315712, -150295.6778163526, -150207.6119431987, -150266.2629206494, -150239.48553079195, -150277.55055159933, -150255.2658623774, 0.41600000000000004, 0.274, 0.8220000000000001, 192.0, 0.0, 0.0, 0.0, 0.0, 0.0, 0.0, 0.0, 0.0, 0.0, 1.738712568161612E9, 0.0, 2025-02-04 18:42:48.161
174.0, 71739.22023048642, 187055.58026499514, -81488.67118223563, -54143.748181313065, -20397.93376897976, 363.6628822878459, -84027.44937270277, -153943.72838064772, -140151.8750371784, -97626.11658884486, -150294.1355459852, -150206.0473210868, -150264.67594679308, -150238.0103156579, -150276.03063297638, -150253.65653677663, 0.41600000000000004, 0.274, 0.8220000000000001, 192.0, 0.0, 0.0, 0.0, 0.0, 0.0, 0.0, 0.0, 0.0, 0.0, 1.738712568169662E9, 0.0, 2025-02-04 18:42:48.169
176.0, 71530.36553029604, 187056.7649074513, -81950.21235349326, -54426.385989950424, -20606.98963487025, 197.1423860958083, -84459.64270349058, -153930.25027874118, -140524.99270737084, -97940.49387460874, -150293.75556632943, -150205.6449896866, -150264.27361539289, -150237.65268774662, -150275.60594983172, -150253.29890886534, 0.41600000000000004, 0.274, 0.8220000000000001, 192.0, 0.0, 0.0, 0.0, 0.0, 0.0, 0.0, 0.0, 0.0, 0.0, 1.738712568177692E9, 0.0, 2025-02-04 18:42:48.177
178.0, 71316.63814981439, 187060.43059354194, -82420.62716729965, -54713.53885096775, -20817.945399039436, 35.338107983840466, -84895.5911273469, -153919.96847629172, -140895.45051997312, -98252.50187546038, -150289.66519709412, -150201.48756521792, -150260.1608944131, -150233.49526327793, -150271.44852536306, -150249.23089137446, 0.41600000000000004, 0.274, 0.8220000000000001, 192.0, 0.0, 0.0, 0.0, 0.0, 0.0, 0.0, 0.0, 0.0, 0.0, 1.738712568184763E9, 0.0, 2025-02-04 18:42:48.184
180.0, 71102.39667921027, 187063.29161683223, -82893.34421078494, -55001.27285734092, -21027.962389941502, -128.54488236247093, -85336.09930707209, -153908.74790057517, -141270.98217856672, -98568.5108385695, -150289.6204936052, -150201.33110300676, -150260.09383917975, -150233.40585630012, -150271.4261736186, -150249.02972567437, 0.456, 0.212, 0.868, 192.0, 7.0, 32.0, 3.0, 80.0, 13.5, 16.0, 0.0, 0.0, 0.0, 1.738712568193836E9, 0.0, 2025-02-04 18:42:48.193
182.0, 70896.13478137669, 187066.57732326715, -83359.8251175672, -55284.29064563401, -21237.979380843568, -293.9030878428326, -85776.76394900847, -153897.19204869177, -141646.9832237939, -98884.56450516755, -150287.7205953265, -150199.52061170587, -150258.19394090105, -150231.50595802141, -150269.63803406217, -150247.2639378624, 0.456, 0.212, 0.868, 192.0, 0.0, 0.0, 0.0, 0.0, 0.0, 0.0, 0.0, 0.0, 0.0, 1.738712568201868E9, 0.0, 2025-02-04 18:42:48.201
184.0, 70689.64936609857, 187069.39364306853, -83822.70739349215, -55563.91096876991, -21446.789377545047, -458.590740989535, -86213.67349787636, -153885.14445843035, -142024.88416729978, -99196.30428508572, -150285.88775228118, -150197.77717563836, -150256.42815308907, -150229.7625219539, -150267.84989450575, -150245.52050179488, 0.456, 0.212, 0.868, 192.0, 0.0, 0.0, 0.0, 0.0, 0.0, 0.0, 0.0, 0.0, 0.0, 1.738712568208859E9, 0.0, 2025-02-04 18:42:48.208
186.0, 70481.71108743086, 187072.41112856998, -84288.31658224066, -55842.05607677175, -21654.213566090297, -624.9771267148408, -86648.43727927654, -153873.63331003586, -142399.52175611517, -99507.55232662587, -150283.54081911338, -150195.31848374827, -150254.0141646879, -150227.34853355272, -150265.34649912675, -150243.06180990482, 0.456, 0.212, 0.868, 192.0, 0.0, 0.0, 0.0, 0.0, 0.0, 0.0, 0.0, 0.0, 0.0, 1.738712568217888E9, 0.0, 2025-02-04 18:42:48.217
188.0, 70269.61538429445, 187075.58507628264, -84754.90924774519, -56122.68222840813, -21863.29178372524, -789.7765385838197, -87082.59756357642, -153862.5244930416, -142526.56907159914, -99832.63609798385, -150281.14918245663, -150192.9939023249, -150251.44371407555, -150224.77808294035, -150262.88780723666, -150240.60311801473, 0.456, 0.212, 0.868, 192.0, 0.0, 0.0, 0.0, 0.0, 0.0, 0.0, 0.0, 0.0, 0.0, 1.738712568225933E9, 0.0, 2025-02-04 18:42:48.225
190.0, 70057.36321894685, 187078.31198910618, -85223.06653536159, -56407.28699055756, -22074.091085683238, -958.1969330545585, -87517.31664148768, -153850.9239376693, -142616.57954652066, -100186.48656445582, -150281.10447896773, -150192.83744011374, -150251.37665884217, -150224.80043468482, -150262.84310374776, -150240.53606278135, 0.453, 0.241, 0.87, 192.0, 7.0, 8.0, 4.0, 56.0, 13.5, 32.0, 0.0, 0.0, 0.0, 1.73871256823297E9, 0.0, 2025-02-04 18:42:48.232
192.0, 69846.3403995443, 187080.92714320746, -85690.44151192206, -56688.31547359413, -22282.74462017353, -1124.3598013353112, -87954.09207988884, -153839.0998648524, -142787.1457084591, -100542.77337107342, -150278.3775661442, -150190.199934268, -150248.71680125198, -150222.07352186128, -150260.22794964648, -150237.78679821335, 0.453, 0.241, 0.87, 192.0, 0.0, 0.0, 0.0, 0.0, 0.0, 0.0, 0.0, 0.0, 0.0, 1.738712568241017E9, 0.0, 2025-02-04 18:42:48.241
194.0, 69636.16694643104, 187086.06804443218, -86153.56965703603, -56968.09225894121, -22491.17463721927, -1290.7238353161617, -88390.04050374514, -153829.68978043675, -142955.81197211886, -100895.93093346727, -150278.28815916638, -150190.26698950137, -150248.60504252973, -150222.0064666279, -150260.205597902, -150237.78679821335, 0.453, 0.241, 0.87, 192.0, 0.0, 0.0, 0.0, 0.0, 0.0, 0.0, 0.0, 0.0, 0.0, 1.738712568250071E9, 0.0, 2025-02-04 18:42:48.250
196.0, 69427.44635670738, 187089.33139912266, -86618.08361030622, -57248.47254138858, -22701.661014754896, -1458.3619187309646, -88827.64295669115, -153818.58096344245, -143125.39465730128, -101250.9436906509, -150277.84112427727, -150189.7976028678, -150248.22506287397, -150221.62648697215, -150259.7585630129, -150237.3621150687, 0.453, 0.241, 0.87, 192.0, 0.0, 0.0, 0.0, 0.0, 0.0, 0.0, 0.0, 0.0, 0.0, 1.738712568258124E9, 0.0, 2025-02-04 18:42:48.258
198.0, 69219.37396757293, 187092.39358811305, -87083.08930195443, -57529.0763412805, -22915.2095812809, -1625.4859120232954, -89267.03354919357, -153807.31568423696, -143290.08231044796, -101605.9340960901, -150276.8799992657, -150188.7023673895, -150247.10747565122, -150220.53125149384, -150258.73038276797, -150236.40099005713, 0.453, 0.241, 0.87, 192.0, 0.0, 0.0, 0.0, 0.0, 0.0, 0.0, 0.0, 0.0, 0.0, 1.738712568265148E9, 0.0, 2025-02-04 18:42:48.265
200.0, 69015.59311337389, 187095.0981491921, -87546.77624067977, -57808.8978301165, -23124.310150660294, -1790.0841581921768, -89701.99849629385, -153795.5586666535, -143201.16707100478, -101973.10620225742, -150275.80711553182, -150187.67418714456, -150244.93935643905, -150218.27372530388, -150257.7692577564, -150235.37280981216, 0.4185, 0.2905, 0.857, 192.0, 6.0, 0.0, 5.0, 80.0, 13.0, 48.0, 0.0, 0.0, 0.0, 1.738712568273204E9, 0.0, 2025-02-04 18:42:48.273
202.0, 68814.27095106494, 187099.2555736608, -88011.26784220552, -58087.534676496354, -23332.38253979475, -1953.5424653938373, -90137.00814688303, -153785.03099501503, -143161.76094553006, -102357.15387548851, -150274.55541784232, -150186.4001377106, -150243.50884479392, -150216.82086191428, -150256.42815308907, -150234.0093534004, 0.4185, 0.2905, 0.857, 192.0, 0.0, 0.0, 0.0, 0.0, 0.0, 0.0, 0.0, 0.0, 0.0, 1.738712568282248E9, 0.0, 2025-02-04 18:42:48.282
204.0, 68607.31614915325, 187102.6083353291, -88477.27936235421, -58373.12291540181, -23542.690103374734, -2119.5265197189474, -90572.3754253835, -153773.92217802076, -143163.59378857538, -102746.67772611114, -150274.5107143534, -150186.42248945506, -150243.44178956054, -150216.8655654032, -150256.38344960017, -150234.0093534004, 0.4185, 0.2905, 0.857, 192.0, 0.0, 0.0, 0.0, 0.0, 0.0, 0.0, 0.0, 0.0, 0.0, 1.738712568289297E9, 0.0, 2025-02-04 18:42:48.289
206.0, 68400.98719608631, 187104.59764058562, -88943.8943796032, -58658.33117465153, -23751.947134965318, -2284.728262988122, -91010.53667194089, -153761.22638717014, -143155.74832627157, -103136.76037034516, -150273.4154788751, -150185.43901269903, -150242.39125757114, -150215.68092294704, -150255.42232458858, -150232.9141179221, 0.4185, 0.2905, 0.857, 192.0, 0.0, 0.0, 0.0, 0.0, 0.0, 0.0, 0.0, 0.0, 0.0, 1.738712568297333E9, 0.0, 2025-02-04 18:42:48.297
208.0, 68196.53578955363, 187106.58694584217, -89409.25769916268, -58939.40436117702, -23959.63954444403, -2449.6170818349224, -91447.51327604214, -153748.46354108615, -143156.62004430534, -103523.5349563998, -150270.84502826276, -150182.71209987547, -150239.6643447476, -150213.0657688458, -150252.69541176505, -150230.29896382082, 0.4185, 0.2905, 0.857, 192.0, 0.0, 0.0, 0.0, 0.0, 0.0, 0.0, 0.0, 0.0, 0.0, 1.738712568305371E9, 0.0, 2025-02-04 18:42:48.305
210.0, 67992.5984731434, 187110.7220185664, -89875.53744024485, -59219.6281814132, -24165.54381436632, -2614.2153280038033, -91886.27801969982, -153737.98057293662, -143163.34791938637, -103905.50391739655, -150270.219179418, -150182.17565800855, -150239.0608476473, -150212.5963822122, -150252.13661815366, -150229.8072254428, 0.39625, 0.33525, 0.8375, 192.0, 5.5, 88.0, 5.5, 112.0, 12.5, 72.0, 0.0, 0.0, 0.0, 1.73871256831443E9, 0.0, 2025-02-04 18:42:48.314
212.0, 67786.001299143, 187114.09713197913, -90342.64419587186, -59503.003597617586, -24374.085590134335, -2778.4559462613997, -92324.97570812413, -153726.87175594232, -143152.1943989032, -104290.02097726119, -150269.5262753399, -150181.48275393044, -150238.34559182473, -150211.8140711563, -150251.39901058664, -150229.02491438686, 0.39625, 0.33525, 0.8375, 192.0, 0.0, 0.0, 0.0, 0.0, 0.0, 0.0, 0.0, 0.0, 0.0, 1.73871256832146E9, 0.0, 2025-02-04 18:42:48.321
214.0, 67578.46535187546, 187116.24289944684, -90808.56630904274, -59786.043737655134, -24582.38149671334, -2943.9259104640378, -92763.47223084835, -153714.39948253628, -143156.4412303497, -104675.76738307088, -150268.43103986158, -150180.34281496322, -150237.22800460196, -150210.6517804446, -150250.32612685277, -150227.8626236752, 0.39625, 0.33525, 0.8375, 192.0, 0.0, 0.0, 0.0, 0.0, 0.0, 0.0, 0.0, 0.0, 0.0, 1.738712568329501E9, 0.0, 2025-02-04 18:42:48.329
216.0, 67376.4502854884, 187119.88623379305, -91272.92380010174, -60068.94976722596, -24786.229406145743, -3109.887613044693, -93202.01345706148, -153703.24596205307, -143153.06611693694, -105060.82088480245, -150266.7099555385, -150178.59937889568, -150235.41751330107, -150208.8636408882, -150248.56033904082, -150226.09683586322, 0.39625, 0.33525, 0.8375, 192.0, 0.0, 0.0, 0.0, 0.0, 0.0, 0.0, 0.0, 0.0, 0.0, 1.738712568337597E9, 0.0, 2025-02-04 18:42:48.337
218.0, 67172.71413477829, 187123.08253325018, -91737.14718069401, -60352.459293897075, -24991.21725454536, -3275.067004569412, -93638.45361929579, -153691.69011016967, -143152.52967507002, -105442.70043882137, -150266.3746793717, -150178.24175098442, -150235.19399585653, -150208.5060129769, -150248.22506287397, -150225.78391144084, 0.39625, 0.33525, 0.8375, 192.0, 0.0, 0.0, 0.0, 0.0, 0.0, 0.0, 0.0, 0.0, 0.0, 1.738712568345609E9, 0.0, 2025-02-04 18:42:48.345
220.0, 66966.69810613371, 187127.3740681856, -92202.24227932004, -60636.75113162412, -25199.6472715911, -3444.3367653294526, -94077.66539784257, -153681.40830772024, -143148.17108490123, -105828.60330684225, -150265.3688508712, -150177.25827422837, -150234.23287084495, -150207.5448879653, -150247.2639378624, -150224.82278642926, 0.358125, 0.375625, 0.83575, 192.0, 5.0, 0.0, 6.5, 0.0, 13.0, 8.0, 0.0, 0.0, 0.0, 1.738712568353627E9, 0.0, 2025-02-04 18:42:48.353
222.0, 66761.44203680062, 187130.27979496476, -92667.00210177925, -60920.37241701751, -25410.73714622702, -3612.1983661888084, -94516.92187987827, -153669.60658664783, -143148.41695409024, -106217.90364002033, -150266.3746793717, -150178.33115796224, -150235.19399585653, -150208.64012344362, -150248.3144698518, -150225.87331841866, 0.358125, 0.375625, 0.83575, 192.0, 0.0, 0.0, 0.0, 0.0, 0.0, 0.0, 0.0, 0.0, 0.0, 1.738712568361675E9, 0.0, 2025-02-04 18:42:48.361
224.0, 66556.208319212, 187131.73265835436, -93132.34306959428, -61203.390205310614, -25620.508267940077, -3776.6177984020474, -94954.83725724665, -153656.4190574192, -143146.047669178, -106603.09125221864, -150263.8712839927, -150175.82776258324, -150232.69060047754, -150206.1590798091, -150245.90048145063, -150223.4146265286, 0.358125, 0.375625, 0.83575, 192.0, 0.0, 0.0, 0.0, 0.0, 0.0, 0.0, 0.0, 0.0, 0.0, 1.738712568369735E9, 0.0, 2025-02-04 18:42:48.369
226.0, 66350.03582835625, 187135.24188223385, -93598.62281067645, -61486.43034534816, -25827.932456485327, -3937.907986391543, -95393.26672473749, -153645.33259216938, -143144.7959714885, -106992.0563092299, -150262.59723455875, -150174.55371314927, -150231.37184755466, -150204.84032688622, -150244.60408027223, -150222.18528058354, 0.358125, 0.375625, 0.83575, 192.0, 0.0, 0.0, 0.0, 0.0, 0.0, 0.0, 0.0, 0.0, 0.0, 1.738712568376833E9, 0.0, 2025-02-04 18:42:48.376
228.0, 66137.82836649756, 187137.54411191275, -94069.93169426105, -61769.69400283027, -26039.514069499266, -4102.930915705075, -95833.46198004032, -153633.44146411915, -143138.3363173409, -107382.74245056421, -150262.2619583919, -150174.17373349355, -150231.0142196434, -150204.41564374158, -150244.15704538312, -150221.8053009278, 0.358125, 0.375625, 0.83575, 192.0, 0.0, 0.0, 0.0, 0.0, 0.0, 0.0, 0.0, 0.0, 0.0, 1.738712568385813E9, 0.0, 2025-02-04 18:42:48.385
230.0, 65927.14082326184, 187140.15926601403, -94541.30763307902, -62054.58933765761, -26251.22979297993, -4270.2337229530485, -96272.49494463146, -153621.8632604913, -143143.4995703101, -107779.26239720135, -150261.4572955915, -150173.23496022643, -150230.1648533541, -150203.52157396337, -150243.37473432717, -150220.97828638295, 0.34806250000000005, 0.3998125, 0.824875, 192.0, 5.0, 72.0, 6.5, 32.0, 12.5, 56.0, 0.0, 0.0, 0.0, 1.738712568393879E9, 0.0, 2025-02-04 18:42:48.393
232.0, 65716.94501840413, 187143.37791721558, -95007.92265032801, -62337.38360850616, -26458.89985071419, -4436.731867400631, -96710.8797086334, -153610.59798128583, -143140.1915121307, -108172.67545135922, -150261.4125921026, -150173.21260848196, -150230.0083911429, -150203.38746349662, -150243.19592037154, -150220.93358289404, 0.34806250000000005, 0.3998125, 0.824875, 192.0, 0.0, 0.0, 0.0, 0.0, 0.0, 0.0, 0.0, 0.0, 0.0, 1.738712568400903E9, 0.0, 2025-02-04 18:42:48.400
234.0, 65509.878457770166, 187147.423582962, -95475.36468212184, -62618.993236898576, -26663.55242294698, -4600.748968213674, -97152.19255115898, -153600.1597166252, -143144.4383435772, -108561.34993569255, -150260.22794964648, -150172.11737300365, -150228.84610043123, -150202.22517278497, -150242.10068489323, -150219.704236949, 0.34806250000000005, 0.3998125, 0.824875, 192.0, 0.0, 0.0, 0.0, 0.0, 0.0, 0.0, 0.0, 0.0, 0.0, 1.738712568408952E9, 0.0, 2025-02-04 18:42:48.408
236.0, 65303.30363551422, 187148.11648704013, -95941.97969937083, -62902.72628101424, -26875.961050505764, -4769.70580455134, -97595.785271619, -153586.59220774082, -143136.65993650674, -108955.63470788416, -150260.18324615757, -150172.07266951475, -150228.77904519785, -150202.1581175516, -150242.01127791542, -150219.68188520454, 0.34806250000000005, 0.3998125, 0.824875, 192.0, 0.0, 0.0, 0.0, 0.0, 0.0, 0.0, 0.0, 0.0, 0.0, 1.738712568418001E9, 0.0, 2025-02-04 18:42:48.418
238.0, 65092.34787134503, 187152.20685627544, -96413.26623121098, -63188.962720508905, -27089.04023039821, -4935.7569141098165, -98037.83572171161, -153576.243350058, -143137.7328202406, -109350.67943938726, -150257.54574031185, -150169.56927413575, -150226.23094632995, -150199.5429634503, -150239.50788253642, -150217.08908284773, 0.34806250000000005, 0.3998125, 0.824875, 192.0, 0.0, 0.0, 0.0, 0.0, 0.0, 0.0, 0.0, 0.0, 0.0, 1.738712568425024E9, 0.0, 2025-02-04 18:42:48.425
240.0, 64887.047098523035, 187154.06205106524, -96881.75879499422, -63473.343965213775, -27299.280738744827, -5102.165651579578, -98478.79093632591, -153563.68166967412, -143139.8785877083, -109737.18580450844, -150258.0151269454, -150169.83749506922, -150226.63327773014, -150199.9899983394, -150239.93256568105, -150217.3573037812, 0.34403125, 0.41290625000000003, 0.8344374999999999, 192.0, 5.0, 80.0, 6.5, 40.0, 13.0, 48.0, 0.0, 0.0, 0.0, 1.738712568433067E9, 0.0, 2025-02-04 18:42:48.433
242.0, 64678.862950666306, 187156.69955691096, -97351.19013204458, -63757.27817502954, -27508.58247382432, -5265.9368832036125, -98920.90844165187, -153551.92465209065, -143136.65993650674, -110128.02840805393, -150255.42232458858, -150167.31174794576, -150223.9063649066, -150197.3524924937, -150237.29505983533, -150214.8539084022, 0.34403125, 0.41290625000000003, 0.8344374999999999, 192.0, 0.0, 0.0, 0.0, 0.0, 0.0, 0.0, 0.0, 0.0, 0.0, 1.738712568441111E9, 0.0, 2025-02-04 18:42:48.441
244.0, 64470.43293362057, 187160.29818776826, -97822.76723656265, -64040.83240518957, -27719.471182760142, -5433.485559640594, -99362.69067081102, -153541.06170428536, -143132.56956727142, -110522.1343662899, -150255.2658623774, -150167.11058224566, -150223.7051992065, -150197.1513267936, -150237.13859762414, -150214.71979793548, 0.34403125, 0.41290625000000003, 0.8344374999999999, 192.0, 0.0, 0.0, 0.0, 0.0, 0.0, 0.0, 0.0, 0.0, 0.0, 1.738712568450166E9, 0.0, 2025-02-04 18:42:48.450
246.0, 64261.55588168572, 187162.93569361398, -98294.16552712506, -64328.342894118185, -27929.219952728745, -5601.973009344699, -99806.7080744157, -153529.37174193523, -143135.69881149518, -110917.67083617102, -150255.6681937776, -150167.46821015695, -150224.1075306067, -150197.50895470488, -150237.40681855762, -150215.12212933568, 0.34403125, 0.41290625000000003, 0.8344374999999999, 192.0, 0.0, 0.0, 0.0, 0.0, 0.0, 0.0, 0.0, 0.0, 0.0, 1.738712568457183E9, 0.0, 2025-02-04 18:42:48.457
248.0, 64054.55637628512, 187166.5790279602, -98759.41708796228, -64614.02054000146, -28135.392443584497, -5766.973586913775, -100247.59623379663, -153518.35233191878, -143128.99328815858, -111310.65920718423, -150253.88005422117, -150165.63536711162, -150222.18528058354, -150195.6537599151, -150235.6633824901, -150213.28928629032, 0.34403125, 0.41290625000000003, 0.8344374999999999, 192.0, 0.0, 0.0, 0.0, 0.0, 0.0, 0.0, 0.0, 0.0, 0.0, 1.738712568465218E9, 0.0, 2025-02-04 18:42:48.465
250.0, 63848.38388542937, 187169.50710648386, -99225.76388427781, -64897.37360446139, -28341.27436176233, -5931.8177022716645, -100687.94795131063, -153506.975293991, -143142.0914104094, -111698.2161042948, -150255.22115888848, -150167.02117526784, -150223.6604957176, -150197.1066233047, -150236.98213541295, -150214.71979793548, 0.34501562500000005, 0.430453125, 0.83021875, 192.0, 5.0, 104.0, 7.0, 0.0, 12.5, 104.0, 0.0, 0.0, 0.0, 1.738712568473267E9, 0.0, 2025-02-04 18:42:48.473
252.0, 63638.72452243859, 187172.0328536073, -99696.5810294844, -65182.78302941121, -28551.917201509143, -6100.5733729092335, -101130.04310489216, -153495.06181419635, -143130.44615154818, -112087.58349270625, -150251.84604547574, -150163.75782057736, -150220.3077340493, -150193.7985651253, -150233.69642897803, -150211.38938801162, 0.34501562500000005, 0.430453125, 0.83021875, 192.0, 0.0, 0.0, 0.0, 0.0, 0.0, 0.0, 0.0, 0.0, 0.0, 1.738712568481306E9, 0.0, 2025-02-04 18:42:48.481
254.0, 63429.78041527038, 187176.36909203161, -100166.41469793496, -65468.080695638746, -28762.962372656155, -6269.28434005789, -101571.11007822872, -153485.13763965818, -143134.6259277613, -112477.71084042918, -150253.05303967634, -150165.03187001133, -150221.5147282499, -150195.02791107036, -150234.99283015644, -150212.5516787233, 0.34501562500000005, 0.430453125, 0.83021875, 192.0, 0.0, 0.0, 0.0, 0.0, 0.0, 0.0, 0.0, 0.0, 0.0, 1.738712568489367E9, 0.0, 2025-02-04 18:42:48.489
0.0, 63221.953895324936, 187177.26316180982, -100636.06955242986, -65752.05960894343, -28972.86760483594, -6436.2742228834895, -102014.076949844, -153471.54777902935, -143120.85725317686, -112871.68268819842, -150251.08608616426, -150162.8413990547, -150219.3689607822, -150192.81508836927, -150232.82471094426, -150210.4506147445, 0.34501562500000005, 0.430453125, 0.83021875, 192.0, 0.0, 0.0, 0.0, 0.0, 0.0, 0.0, 0.0, 0.0, 0.0, 1.73871256849739E9, 0.0, 2025-02-04 18:42:48.497
2.0, 63013.61328525702, 187181.59940023418, -101102.8633836345, -66034.22803094721, -29181.811712004153, -6603.733492342651, -102456.17210342552, -153461.44479053555, -143133.01660216053, -113260.22306206502, -150250.88492046416, -150162.66258509905, -150219.3019055488, -150192.85979185818, -150232.69060047754, -150210.4059112556, 0.34501562500000005, 0.430453125, 0.83021875, 192.0, 0.0, 0.0, 0.0, 0.0, 0.0, 0.0, 0.0, 0.0, 0.0, 1.738712568505446E9, 0.0, 2025-02-04 18:42:48.505
4.0, 62803.46218388822, 187183.96868514642, -101572.49588638496, -66316.06117678418, -29393.281566295813, -6771.058651335079, -102898.91545759625, -153449.48660725198, -143124.99232590108, -113653.65846796734, -150249.23089137446, -150161.0532594983, -150217.5137659924, -150191.07165230176, -150231.0589231323, -150208.64012344362, 0.34501562500000005, 0.430453125, 0.83021875, 192.0, 0.0, 0.0, 0.0, 0.0, 0.0, 0.0, 0.0, 0.0, 0.0, 1.738712568512465E9, 0.0, 2025-02-04 18:42:48.512
6.0, 62593.91457961972, 187186.44972878098, -102043.26832810264, -66600.19655230004, -29605.019641520936, -6938.652031260972, -103340.51887279974, -153437.461368735, -143126.4898927796, -114050.91602217151, -150249.09678090774, -150160.76268682035, -150217.3573037812, -150190.8481348572, -150230.90246092112, -150208.3942542546, 0.34400000000000003, 0.406, 0.8320000000000001, 192.0, 5.0, 96.0, 6.0, 88.0, 13.0, 0.0, 0.0, 0.0, 0.0, 1.738712568521516E9, 0.0, 2025-02-04 18:42:48.521
8.0, 62389.15024866465, 187190.96478116093, -102511.13504304113, -66885.76243946105, -29816.24362662359, -7104.457271630439, -103783.1951717371, -153427.53719419686, -143114.4199507737, -114451.4145793217, -150247.84508321824, -150159.6450995976, -150216.1503095806, -150189.61878891216, -150229.69546672053, -150207.27666703187, 0.34400000000000003, 0.406, 0.8320000000000001, 192.0, 0.0, 0.0, 0.0, 0.0, 0.0, 0.0, 0.0, 0.0, 0.0, 1.738712568529557E9, 0.0, 2025-02-04 18:42:48.529
10.0, 62181.25667348584, 187192.95408641745, -102979.53819984653, -67171.19421615532, -30024.763050647147, -7269.837828855256, -104224.50801426268, -153414.95316206853, -143127.1827968577, -114851.13082541595, -150249.8120367303, -150161.65675659856, -150218.1172630927, -150191.60809416868, -150231.57301325476, -150209.26597228838, 0.34400000000000003, 0.406, 0.8320000000000001, 192.0, 0.0, 0.0, 0.0, 0.0, 0.0, 0.0, 0.0, 0.0, 0.0, 1.738712568537616E9, 0.0, 2025-02-04 18:42:48.537
12.0, 61967.015202881725, 187197.22326960842, -103450.57886249768, -67457.63182135008, -30236.41171889445, -7438.32527855936, -104667.81016204479, -153404.96193229698, -143124.90291892327, -115241.32522837225, -150247.21923437348, -150158.9968990084, -150215.43505375803, -150188.85882960068, -150228.9131556646, -150206.4943559759, 0.34400000000000003, 0.406, 0.8320000000000001, 192.0, 0.0, 0.0, 0.0, 0.0, 0.0, 0.0, 0.0, 0.0, 0.0, 1.738712568544635E9, 0.0, 2025-02-04 18:42:48.544
14.0, 61757.95933699123, 187200.2854585988, -103917.84208033587, -67745.32112423434, -30446.316951074237, -7606.164527674262, -105113.32513252797, -153393.78606006934, -143122.8689101778, -115638.42632036524, -150248.94031869655, -150160.82974205373, -150217.2678968034, -150190.66932090156, -150230.8130539433, -150208.461309488, 0.34400000000000003, 0.406, 0.8320000000000001, 192.0, 0.0, 0.0, 0.0, 0.0, 0.0, 0.0, 0.0, 0.0, 0.0, 1.738712568553682E9, 0.0, 2025-02-04 18:42:48.553
16.0, 61550.13281704579, 187202.27476385533, -104384.61355979605, -68031.93754338475, -30651.058930284853, -7771.209808732249, -105553.58744306416, -153381.38084189664, -143120.81254968795, -116032.2864094122, -150247.2639378624, -150159.0416024973, -150215.72562643597, -150188.9929400674, -150229.22608008696, -150206.8072803983, 0.378, 0.376, 0.86, 192.0, 5.5, 104.0, 5.5, 96.0, 13.0, 112.0, 0.0, 0.0, 0.0, 1.738712568562743E9, 0.0, 2025-02-04 18:42:48.562
18.0, 61337.88065169819, 187208.22032788044, -104852.21205380108, -68318.66572125742, -30857.34317986288, -7936.2550897902365, -105997.15781177972, -153372.97658598144, -143132.793084716, -116422.23494317949, -150247.08512390676, -150158.90749203056, -150215.52446073588, -150188.97058832296, -150228.98021089795, -150206.5614112093, 0.378, 0.376, 0.86, 192.0, 0.0, 0.0, 0.0, 0.0, 0.0, 0.0, 0.0, 0.0, 0.0, 1.738712568568829E9, 0.0, 2025-02-04 18:42:48.568
20.0, 61127.79660556276, 187208.73441800292, -105322.5598123741, -68606.33267239723, -31066.77902540911, -8099.355769080612, -106440.5270147952, -153359.02909744135, -143118.018581631, -116814.10572696994, -150248.04624891834, -150159.75685831986, -150216.23971655843, -150189.70819588998, -150229.85192893172, -150207.3437222652, 0.378, 0.376, 0.86, 192.0, 0.0, 0.0, 0.0, 0.0, 0.0, 0.0, 0.0, 0.0, 0.0, 1.738712568576822E9, 0.0, 2025-02-04 18:42:48.576
22.0, 60918.96425711683, 187213.51769131635, -105790.2700651014, -68893.30671945891, -31273.5326616207, -8264.624567583152, -106886.60077888976, -153349.66371651457, -143127.36161081333, -117207.67524333898, -150246.213405873, -150157.92401527453, -150214.42922525754, -150187.83064935575, -150228.04143763083, -150205.5555827088, 0.378, 0.376, 0.86, 192.0, 0.0, 0.0, 0.0, 0.0, 0.0, 0.0, 0.0, 0.0, 0.0, 1.738712568585857E9, 0.0, 2025-02-04 18:42:48.585
24.0, 60711.69653078277, 187216.15519716206, -106255.16399802733, -69177.71031590823, -31477.13470186409, -8427.56878466234, -107328.71828421573, -153337.75023671988, -143120.34316305438, -117602.47410565306, -150246.66044076212, -150158.438105397, -150214.87626014667, -150188.3000359893, -150228.4661207755, -150206.0026175979, 0.378, 0.376, 0.86, 192.0, 0.0, 0.0, 0.0, 0.0, 0.0, 0.0, 0.0, 0.0, 0.0, 1.738712568592871E9, 0.0, 2025-02-04 18:42:48.592
26.0, 60505.52403992701, 187219.55266231927, -106723.67891355502, -69461.13043560153, -31681.586108396783, -8591.138850586278, -107770.70167907498, -153326.55201274776, -143124.94762241218, -117994.36724118797, -150245.22992911696, -150157.00759375186, -150213.37869326814, -150186.8918760886, -150226.92385040806, -150204.5050507194, 0.362, 0.34, 0.85, 192.0, 5.5, 40.0, 5.0, 80.0, 13.0, 72.0, 0.0, 0.0, 0.0, 1.738712568600981E9, 0.0, 2025-02-04 18:42:48.600
28.0, 60296.535229269895, 187221.49726408688, -107193.55728549449, -69746.3610465957, -31890.284346375985, -8755.960614199712, -108214.89789663529, -153314.12444283062, -143120.29845956547, -118387.13209475663, -150245.85577796173, -150157.63344259662, -150214.02689385737, -150187.36126272217, -150227.5049957639, -150205.1532513086, 0.362, 0.34, 0.85, 192.0, 0.0, 0.0, 0.0, 0.0, 0.0, 0.0, 0.0, 0.0, 0.0, 1.738712568608981E9, 0.0, 2025-02-04 18:42:48.608
30.0, 60087.166438957036, 187222.12311293164, -107664.01680278979, -70034.27386692452, -32099.63078494439, -8919.933011523844, -108661.3963438745, -153300.46752696842, -143114.7328751961, -118783.67439313822, -150241.1619116261, -150152.91722451654, -150209.3106757773, -150182.66739638656, -150222.87818466165, -150200.5040884619, 0.362, 0.34, 0.85, 192.0, 0.0, 0.0, 0.0, 0.0, 0.0, 0.0, 0.0, 0.0, 0.0, 1.738712568617032E9, 0.0, 2025-02-04 18:42:48.617
32.0, 59883.07266033562, 187227.8451595122, -108131.25766888353, -70319.63858838542, -32307.68082233439, -9087.057004816175, -109108.0512533249, -153291.59388441968, -143118.26445082005, -119178.27208975222, -150241.65365000413, -150153.4536663835, -150209.86946938868, -150183.2932452313, -150223.5040335064, -150201.06288207328, 0.362, 0.34, 0.85, 192.0, 0.0, 0.0, 0.0, 0.0, 0.0, 0.0, 0.0, 0.0, 0.0, 1.738712568625066E9, 0.0, 2025-02-04 18:42:48.625
34.0, 59677.36955611343, 187230.01327872436, -108599.0796803331, -70604.0645365792, -32514.68032773499, -9251.387030051594, -109551.55456680711, -153279.18866624698, -143117.59389848638, -119576.13314105668, -150242.16774012658, -150154.05716348375, -150210.31650427778, -150183.78498360934, -150223.97342013996, -150201.62167568467, 0.362, 0.34, 0.85, 192.0, 0.0, 0.0, 0.0, 0.0, 0.0, 0.0, 0.0, 0.0, 0.0, 1.738712568633111E9, 0.0, 2025-02-04 18:42:48.633
36.0, 59467.79960010047, 187234.90831076007, -109066.56641561586, -70889.63042374021, -32722.104516280237, -9418.689837299567, -109997.53892392384, -153269.80093357575, -143110.19547107167, -119972.20605280473, -150241.40778081512, -150153.23014893892, -150209.5118414774, -150182.89091383113, -150223.19110908403, -150200.7946611398, 0.35000000000000003, 0.316, 0.848, 192.0, 5.0, 120.0, 4.5, 112.0, 13.0, 64.0, 0.0, 0.0, 0.0, 1.738712568642143E9, 0.0, 2025-02-04 18:42:48.642
38.0, 59260.10719062176, 187238.01520323937, -109532.26501134217, -71177.47618883564, -32929.86398099232, -9587.445507937135, -110446.69722875324, -153258.423895648, -143111.49187225007, -120373.03988612174, -150242.83829246025, -150154.72771581743, -150210.87529788917, -150184.38848070963, -150224.57691724025, -150202.26987627387, 0.35000000000000003, 0.316, 0.848, 192.0, 0.0, 0.0, 0.0, 0.0, 0.0, 0.0, 0.0, 0.0, 0.0, 1.738712568648182E9, 0.0, 2025-02-04 18:42:48.648
40.0, 59054.71701082194, 187241.6361858411, -109995.32610122277, -71459.42109339489, -33137.19876255975, -9757.40817277529, -110896.41432719403, -153247.13626469809, -143115.76105544105, -120769.89510892572, -150241.49718779293, -150153.3866111501, -150209.53419322183, -150183.06972778676, -150223.28051606184, -150200.86171637318, 0.35000000000000003, 0.316, 0.848, 192.0, 0.0, 0.0, 0.0, 0.0, 0.0, 0.0, 0.0, 0.0, 0.0, 1.738712568657248E9, 0.0, 2025-02-04 18:42:48.657
42.0, 58850.667935689446, 187245.57009286527, -110454.45328407924, -71740.9860182984, -33343.281846437676, -9930.656544048376, -111346.31023959044, -153235.98274421488, -143117.90682290876, -121163.73284622823, -150241.07250464827, -150152.96192800545, -150209.13186182163, -150182.62269289765, -150222.8558329172, -150200.41468148408, 0.35000000000000003, 0.316, 0.848, 192.0, 0.0, 0.0, 0.0, 0.0, 0.0, 0.0, 0.0, 0.0, 0.0, 1.738712568665306E9, 0.0, 2025-02-04 18:42:48.665
44.0, 58643.869595988945, 187249.3922411671, -110916.41913848152, -72024.98728334752, -33555.82458446319, -10102.340293209589, -111796.94375955389, -153224.9633341984, -143116.0739798634, -121556.20712711896, -150240.06667614778, -150152.0008029939, -150208.17073681008, -150181.61686439716, -150221.89470790562, -150199.43120472805, 0.35000000000000003, 0.316, 0.848, 192.0, 0.0, 0.0, 0.0, 0.0, 0.0, 0.0, 0.0, 0.0, 0.0, 1.738712568672338E9, 0.0, 2025-02-04 18:42:48.672
46.0, 58441.072218545945, 187253.77318308034, -111378.80967602845, -72306.97689139568, -33766.19920327654, -10272.437068514475, -112245.45386379409, -153214.54742128224, -143118.1750438422, -121951.98946618909, -150239.6643447476, -150151.4420093825, -150207.72370192097, -150181.16982950806, -150221.3582660387, -150199.0512250723, 0.33, 0.322, 0.886, 192.0, 5.0, 40.0, 5.0, 8.0, 13.5, 88.0, 0.0, 0.0, 0.0, 1.738712568680367E9, 0.0, 2025-02-04 18:42:48.680
48.0, 58237.51488179146, 187257.12594474864, -111842.2507455648, -72589.54764479968, -33975.7691592895, -10440.008096695912, -112693.80750582309, -153203.08097637666, -143113.59293622887, -122344.9778372023, -150238.63616450265, -150150.436180882, -150206.71787342048, -150180.02989054084, -150220.44184451603, -150198.0006930829, 0.33, 0.322, 0.886, 192.0, 0.0, 0.0, 0.0, 0.0, 0.0, 0.0, 0.0, 0.0, 0.0, 1.738712568689397E9, 0.0, 2025-02-04 18:42:48.689
50.0, 58033.89048980361, 187261.43983142852, -112305.71416684559, -72872.27486041485, -34184.221528079695, -10607.310903943886, -113140.5518222513, -153192.62035997157, -143119.9184799097, -122736.44628959255, -150238.07737089126, -150149.698573315, -150206.06967283128, -150179.448745185, -150219.83834741573, -150197.3077890048, 0.33, 0.322, 0.886, 192.0, 0.0, 0.0, 0.0, 0.0, 0.0, 0.0, 0.0, 0.0, 0.0, 1.738712568697454E9, 0.0, 2025-02-04 18:42:48.697
52.0, 57830.35550479359, 187263.74206110742, -112773.04443991715, -73160.65706737722, -34398.03831553916, -10777.810010648967, -113591.4088596593, -153180.12573482105, -143114.75522694056, -123128.47353559418, -150237.09389413524, -150148.8492070257, -150204.97443735297, -150178.46526842896, -150218.87722240415, -150196.36901573767, 0.33, 0.322, 0.886, 192.0, 0.0, 0.0, 0.0, 0.0, 0.0, 0.0, 0.0, 0.0, 0.0, 1.738712568704473E9, 0.0, 2025-02-04 18:42:48.704
54.0, 57626.284077916636, 187269.1511832656, -113242.49812871196, -73447.7875766501, -34610.20107390894, -10944.732838241202, -114042.84704242315, -153170.93916784992, -143121.05841887696, -123522.80301127471, -150237.33976332424, -150149.11742795914, -150205.3544170087, -150178.75584110687, -150219.1677950821, -150196.65958841558, 0.33, 0.322, 0.886, 192.0, 0.0, 0.0, 0.0, 0.0, 0.0, 0.0, 0.0, 0.0, 0.0, 1.738712568712522E9, 0.0, 2025-02-04 18:42:48.712
56.0, 57422.23500278414, 187271.54281992232, -113711.2365616842, -73733.71109172239, -34822.006204367426, -11103.586686085067, -114498.86733280032, -153158.53394967722, -143114.95639264066, -123912.03628921942, -150235.55162376782, -150147.32928840272, -150203.47687047446, -150176.96770155046, -150217.42435901458, -150194.98320758145, 0.33, 0.294, 0.914, 192.0, 5.0, 40.0, 4.5, 24.0, 14.0, 72.0, 0.0, 0.0, 0.0, 1.738712568721572E9, 0.0, 2025-02-04 18:42:48.721
58.0, 57218.8564799853, 187274.11327053467, -114181.0031749014, -74019.56755156131, -35037.1193930053, -11263.5581211517, -114959.29091683519, -153146.12873150455, -143121.34899155487, -124297.46977060674, -150235.32810632326, -150147.17282619153, -150203.36511175218, -150176.72183236145, -150217.13378633664, -150194.75969013688, 0.33, 0.294, 0.914, 192.0, 0.0, 0.0, 0.0, 0.0, 0.0, 0.0, 0.0, 0.0, 0.0, 1.738712568728626E9, 0.0, 2025-02-04 18:42:48.728
60.0, 57009.19711699452, 187273.37566296765, -114654.3684189759, -74307.3909649123, -35253.95366596623, -11434.772483679353, -115415.71353861256, -153130.92954527494, -143108.6308489598, -124685.67486830651, -150231.37184755466, -150143.37302963412, -150199.4088529836, -150172.87733231514, -150213.4010450126, -150190.87048660166, 0.33, 0.294, 0.914, 192.0, 0.0, 0.0, 0.0, 0.0, 0.0, 0.0, 0.0, 0.0, 0.0, 1.738712568736653E9, 0.0, 2025-02-04 18:42:48.736
62.0, 56798.73309120335, 187275.83435485774, -115127.10781420564, -74599.99765157672, -35470.22914531579, -11610.747767775985, -115872.85141621249, -153119.10547245806, -143103.28878203497, -125075.4222363737, -150227.5049957639, -150139.43912261, -150195.47494595946, -150169.03283226883, -150209.4000827551, -150186.8918760886, 0.33, 0.294, 0.914, 192.0, 0.0, 0.0, 0.0, 0.0, 0.0, 0.0, 0.0, 0.0, 0.0, 1.738712568744694E9, 0.0, 2025-02-04 18:42:48.744
64.0, 56587.978492734255, 187278.29304674783, -115603.44584029268, -74895.55476850925, -35689.03037178879, -11785.091374527381, -116327.82117460028, -153107.4825653413, -143109.30140129346, -125463.80614802912, -150227.3708852972, -150139.34971563218, -150195.31848374827, -150168.80931482426, -150209.198917055, -150186.75776562188, 0.33, 0.294, 0.914, 192.0, 0.0, 0.0, 0.0, 0.0, 0.0, 0.0, 0.0, 0.0, 0.0, 1.738712568753817E9, 0.0, 2025-02-04 18:42:48.753
66.0, 56373.51350468559, 187279.76826188187, -116082.42137222545, -75191.04483020841, -35905.462313349526, -11959.36792604541, -116779.28170910856, -153094.9879401908, -143106.73095068109, -125850.6030858282, -150225.94037365203, -150137.9415557315, -150193.93267559205, -150167.46821015695, -150207.8578123877, -150185.41666095456, 0.312, 0.276, 0.927, 192.0, 4.5, 24.0, 4.0, 8.0, 14.5, 48.0, 0.0, 0.0, 0.0, 1.738712568760817E9, 0.0, 2025-02-04 18:42:48.760
68.0, 56154.958147401594, 187280.93055259355, -116564.48144489307, -75489.0159355421, -36124.79998168945, -12134.516195597196, -117233.2679907403, -153082.44861155137, -143100.18188955568, -126242.049186474, -150223.83930967323, -150135.70638128597, -150191.71985289096, -150165.27773920033, -150205.62263794217, -150183.20383825348, 0.312, 0.276, 0.927, 192.0, 0.0, 0.0, 0.0, 0.0, 0.0, 0.0, 0.0, 0.0, 0.0, 1.738712568768823E9, 0.0, 2025-02-04 18:42:48.768
70.0, 55938.392095374125, 187281.55640143828, -117044.28399137068, -75785.06479085264, -36339.55554241604, -12309.91033433799, -117690.67408927371, -153069.14932360046, -143102.55117446795, -126635.17166795394, -150222.78877768383, -150134.678201041, -150190.62461741266, -150164.16015197756, -150204.5497542083, -150182.198009753, 0.312, 0.276, 0.927, 192.0, 0.0, 0.0, 0.0, 0.0, 0.0, 0.0, 0.0, 0.0, 0.0, 1.738712568776883E9, 0.0, 2025-02-04 18:42:48.776
72.0, 55723.56947941417, 187282.27165726086, -117521.87371514723, -76078.23027112846, -36551.360672874536, -12482.689318977515, -118145.7332546393, -153055.93944262736, -143095.97976159808, -127024.04731798737, -150220.19597532702, -150132.0406951953, -150187.96475982247, -150161.56734962075, -150202.0016553404, -150179.51580041836, 0.312, 0.276, 0.927, 192.0, 0.0, 0.0, 0.0, 0.0, 0.0, 0.0, 0.0, 0.0, 0.0, 1.738712568784924E9, 0.0, 2025-02-04 18:42:48.784
74.0, 55507.13753785343, 187283.38924448364, -117997.78705808963, -76367.59595484685, -36761.71293994343, -12653.300184404872, -118606.6485770522, -153042.95307909884, -143097.74554941006, -127410.24075868617, -150217.37965552564, -150129.0902649272, -150185.23784699893, -150158.70632633046, -150199.18533553902, -150176.72183236145, 0.312, 0.276, 0.927, 192.0, 0.0, 0.0, 0.0, 0.0, 0.0, 0.0, 0.0, 0.0, 0.0, 1.738712568792959E9, 0.0, 2025-02-04 18:42:48.792
76.0, 55289.52095383656, 187284.61859042867, -118477.1649214226, -76658.66037114387, -36973.13809074618, -12824.313381232427, -119070.89430938892, -153030.2796399927, -143095.28685751997, -127799.49638837534, -150215.83738515823, -150127.7268085154, -150183.6955766315, -150157.2534629409, -150197.71012040498, -150175.2466172274, 0.257, 0.27, 0.9305000000000001, 192.0, 3.0, 40.0, 4.0, 32.0, 14.5, 24.0, 0.0, 0.0, 0.0, 1.738712568801004E9, 0.0, 2025-02-04 18:42:48.801
78.0, 55071.14441050821, 187286.07145381827, -118955.42519753281, -76950.75296768582, -37186.99958169456, -12995.103060615429, -119534.93887602555, -153017.87442182, -143093.63282843027, -128188.17087270867, -150213.6469142016, -150125.55868930326, -150181.52745741935, -150154.9959367509, -150195.4972977039, -150173.1455532486, 0.257, 0.27, 0.9305000000000001, 192.0, 0.0, 0.0, 0.0, 0.0, 0.0, 0.0, 0.0, 0.0, 0.0, 1.738712568809039E9, 0.0, 2025-02-04 18:42:48.809
80.0, 54854.935986392025, 187287.77018639687, -119432.00909280886, -77241.72797700501, -37400.525796476104, -13163.568158575077, -119995.76479146062, -153005.5139071362, -143099.60074419985, -128572.28560117312, -150211.23292580043, -150123.0776456687, -150179.11346901816, -150152.7384105609, -150193.08330930275, -150170.66450961406, 0.257, 0.27, 0.9305000000000001, 192.0, 0.0, 0.0, 0.0, 0.0, 0.0, 0.0, 0.0, 0.0, 0.0, 1.738712568816071E9, 0.0, 2025-02-04 18:42:48.816
82.0, 54640.448646598896, 187288.91012536408, -119905.08376420544, -77533.82057354697, -37610.81100831163, -13332.279125723735, -120456.0766167732, -152992.50519186322, -143096.73972090957, -128952.06409121325, -150208.23779204342, -150120.03780842279, -150176.11833526116, -150149.56446284824, -150190.02112031236, -150167.55761713476, 0.257, 0.27, 0.9305000000000001, 192.0, 0.0, 0.0, 0.0, 0.0, 0.0, 0.0, 0.0, 0.0, 0.0, 1.738712568825144E9, 0.0, 2025-02-04 18:42:48.825
84.0, 54427.570632406554, 187290.07241607577, -120380.99710714784, -77825.30967298862, -37822.236159114385, -13507.047415619782, -120921.46228807716, -152979.47412484576, -143091.26354351803, -129334.03305220998, -150204.86267863068, -150116.61799152114, -150172.63146312613, -150146.0999424577, -150186.53424817734, -150164.16015197756, 0.257, 0.27, 0.9305000000000001, 192.0, 0.0, 0.0, 0.0, 0.0, 0.0, 0.0, 0.0, 0.0, 0.0, 1.738712568833159E9, 0.0, 2025-02-04 18:42:48.833
86.0, 54212.36803679085, 187292.01701784338, -120854.54116517797, -78115.97175788543, -38032.499019205454, -13680.854580504249, -121376.20852902038, -152967.06890667308, -143081.49583119104, -129718.70657428582, -150202.71691116298, -150114.49457579787, -150170.48569565843, -150143.90947150107, -150184.3437772207, -150162.08143974323, 0.1735, 0.256, 0.9392500000000001, 192.0, 1.0, 104.0, 3.5, 72.0, 14.5, 80.0, 0.0, 0.0, 0.0, 1.738712568840208E9, 0.0, 2025-02-04 18:42:48.840
88.0, 54002.99924647799, 187293.6039916997, -121327.36996738553, -78403.63870902524, -38240.973739740104, -13851.957184309626, -121827.5573048064, -152953.9037291889, -143086.43556671566, -130101.54725331633, -150200.32527450626, -150112.23704960788, -150168.18346597953, -150141.60724182217, -150182.15330626408, -150159.8015618088, 0.1735, 0.256, 0.9392500000000001, 192.0, 0.0, 0.0, 0.0, 0.0, 0.0, 0.0, 0.0, 0.0, 0.0, 1.738712568848241E9, 0.0, 2025-02-04 18:42:48.848
90.0, 53800.894773113105, 187294.92274462257, -121795.84017942431, -78687.05882871852, -38447.83913467397, -14028.223041084177, -122277.02853405816, -152940.35857204898, -143092.31407550743, -130479.11292065537, -150196.5478296933, -150108.45960479495, -150164.4507246555, -150137.9862592204, -150178.37586145115, -150156.02411699583, 0.1735, 0.256, 0.9392500000000001, 192.0, 0.0, 0.0, 0.0, 0.0, 0.0, 0.0, 0.0, 0.0, 0.0, 1.738712568857318E9, 0.0, 2025-02-04 18:42:48.857
92.0, 53599.99729394881, 187294.6098202002, -122256.17435648137, -78971.88710831251, -38658.50432616524, -14224.24783995722, -122723.70579525302, -152924.57824046354, -143072.04104328644, -130859.76312872925, -150190.75872787938, -150102.55874425874, -150158.5498641193, -150132.15245391757, -150172.65381487057, -150150.1456082041, 0.1735, 0.256, 0.9392500000000001, 192.0, 0.0, 0.0, 0.0, 0.0, 0.0, 0.0, 0.0, 0.0, 0.0, 1.738712568864333E9, 0.0, 2025-02-04 18:42:48.864
94.0, 53399.85977409599, 187298.74489292444, -122718.67665275058, -79252.89323960463, -38870.39886360155, -14426.32996157765, -123144.566791602, -152913.38001649143, -143076.4666886886, -131240.3686333142, -150188.05416680028, -150099.78712794627, -150155.91235827355, -150129.3808376051, -150169.9492537915, -150147.50810235838, 0.1735, 0.256, 0.9392500000000001, 192.0, 0.0, 0.0, 0.0, 0.0, 0.0, 0.0, 0.0, 0.0, 0.0, 1.738712568872367E9, 0.0, 2025-02-04 18:42:48.872
96.0, 53205.28783861254, 187301.5612127258, -123181.11189378642, -79534.3240540414, -39080.90759288163, -14607.915533532565, -123553.44725292292, -152900.52776342962, -143075.5279154215, -131617.2190448307, -150185.57312316576, -150097.3284360562, -150153.3419076612, -150126.69862827047, -150167.33409969023, -150145.00470697938, 0.049749999999999996, 0.23399999999999999, 0.9356250000000002, 192.0, 126.5, 88.0, 3.0, 80.0, 14.5, 16.0, 0.0, 0.0, 0.0, 1.738712568880434E9, 0.0, 2025-02-04 18:42:48.880
98.0, 53006.98316180506, 187302.52233773738, -123647.6822075465, -79817.47595280122, -39295.73020884159, -14782.750878661976, -123964.29466775594, -152886.1332400004, -143076.1761160107, -131995.16469182548, -150181.97449230845, -150093.81921217672, -150149.7432768039, -150123.30116311327, -150163.78017232183, -150141.4954830999, 0.049749999999999996, 0.23399999999999999, 0.9356250000000002, 192.0, 0.0, 0.0, 0.0, 0.0, 0.0, 0.0, 0.0, 0.0, 0.0, 1.738712568889503E9, 0.0, 2025-02-04 18:42:48.889
100.0, 52803.157604117114, 187305.0480848608, -124117.49352425261, -80104.87468300757, -39515.850188237455, -14951.640659766277, -124383.36752454848, -152873.7727253166, -143062.2733309595, -132373.26680103145, -150177.01240503936, -150088.81242141873, -150144.82589302372, -150118.33907584418, -150158.86278854165, -150136.5333958308, 0.049749999999999996, 0.23399999999999999, 0.9356250000000002, 192.0, 0.0, 0.0, 0.0, 0.0, 0.0, 0.0, 0.0, 0.0, 0.0, 1.738712568896493E9, 0.0, 2025-02-04 18:42:48.896
102.0, 52603.6682848535, 187306.27743080587, -124585.51670140227, -80392.0722475138, -39734.89728389946, -15118.27291468059, -124815.69496580304, -152860.11580945444, -143061.15574373672, -132755.325169006, -150173.90551256007, -150085.683177195, -150141.60724182217, -150115.12042464264, -150155.73354431792, -150133.31474462926, 0.049749999999999996, 0.23399999999999999, 0.9356250000000002, 192.0, 0.0, 0.0, 0.0, 0.0, 0.0, 0.0, 0.0, 0.0, 0.0, 1.738712568904547E9, 0.0, 2025-02-04 18:42:48.904
104.0, 52400.87090741049, 187307.6185354732, -125061.54180306695, -80684.45541673368, -39952.1785917495, -15282.915864338383, -125256.73958739515, -152846.70476278124, -143057.1100779903, -133138.47877245888, -150168.11641074615, -150079.96113061442, -150135.75108477488, -150109.39837806206, -150150.01149773735, -150127.54799455978, 0.049749999999999996, 0.23399999999999999, 0.9356250000000002, 192.0, 0.0, 0.0, 0.0, 0.0, 0.0, 0.0, 0.0, 0.0, 0.0, 1.738712568913584E9, 0.0, 2025-02-04 18:42:48.913
106.0, 52195.97246598869, 187313.6535064761, -125534.1247360855, -80979.74431273274, -40171.583315322794, -15447.312944807167, -125698.61122353212, -152837.9205272103, -143062.45214491512, -133519.95599507762, -150167.02117526784, -150078.91059862502, -150134.72290452992, -150108.30314258375, -150148.8939105146, -150126.3857038481, -0.10912500000000001, 0.205, 0.9188125, 192.0, 123.5, 80.0, 2.5, 64.0, 14.0, 24.0, 0.0, 0.0, 0.0, 1.738712568921647E9, 0.0, 2025-02-04 18:42:48.921
108.0, 51990.55993444442, 187315.8663291772, -126009.25576797198, -81274.58617384269, -40391.77034995203, -15612.961722965447, -126143.7238626151, -152825.64941950433, -143052.72913607708, -133905.098903787, -150166.32827118973, -150078.24004629138, -150134.16411091856, -150107.56553501674, -150148.2904134143, -150125.71515151445, -0.10912500000000001, 0.205, 0.9188125, 192.0, 0.0, 0.0, 0.0, 0.0, 0.0, 0.0, 0.0, 0.0, 0.0, 1.738712568928668E9, 0.0, 2025-02-04 18:42:48.928
110.0, 51782.46519356551, 187319.2637943344, -126485.14675916992, -81570.9032500867, -40611.15272178087, -15779.325756946297, -126591.76458022173, -152814.69706472126, -143044.10136271734, -134294.82392010975, -150163.28843394382, -150075.24491253437, -150131.05721843927, -150104.50334602635, -150145.2505761684, -150122.69766601297, -0.10912500000000001, 0.205, 0.9188125, 192.0, 0.0, 0.0, 0.0, 0.0, 0.0, 0.0, 0.0, 0.0, 0.0, 1.73871256893673E9, 0.0, 2025-02-04 18:42:48.936
112.0, 51573.11875499711, 187321.5660240133, -126960.81423292331, -81867.6226577309, -40830.0880587206, -15944.43809323765, -127035.49141114848, -152802.4706605042, -143037.97698473657, -134688.81811962344, -150161.63440485412, -150073.4791247224, -150129.35848586066, -150102.71520646993, -150143.50714010088, -150121.22245087894, -0.10912500000000001, 0.205, 0.9188125, 192.0, 0.0, 0.0, 0.0, 0.0, 0.0, 0.0, 0.0, 0.0, 0.0, 1.73871256894581E9, 0.0, 2025-02-04 18:42:48.945
114.0, 51361.000700116245, 187324.65056474812, -127439.07450903351, -82165.19143166441, -41046.721165981435, -16111.38327257434, -127480.78286418712, -152791.20538129873, -143039.2063306816, -135085.00279009377, -150159.6898030865, -150071.69098516597, -150127.41388409305, -150100.83765993567, -150141.4954830999, -150119.18844213348, -0.10912500000000001, 0.205, 0.9188125, 192.0, 0.0, 0.0, 0.0, 0.0, 0.0, 0.0, 0.0, 0.0, 0.0, 1.738712568952825E9, 0.0, 2025-02-04 18:42:48.952
116.0, 51146.04397368956, 187327.77980897189, -127919.949939245, -82466.85057483322, -41261.74494764149, -16281.36828915695, -127927.81775329326, -152780.25302651562, -143035.85356901333, -135483.04265535387, -150159.3992304086, -150071.31100551022, -150127.01155269286, -150100.43532853547, -150141.16020693307, -150118.7861107333, -0.2385625, 0.1795, 0.8884062500000001, 192.0, 122.0, 64.0, 2.0, 104.0, 13.0, 104.0, 0.0, 0.0, 0.0, 1.73871256896083E9, 0.0, 2025-02-04 18:42:48.960
118.0, 50924.627593115285, 187329.18796887255, -128404.82633171396, -82772.2424593261, -41466.77749953002, -16448.44757896037, -128377.42309301176, -152767.8701600874, -143020.34145836133, -135888.90563117334, -150157.83460829672, -150069.74638339836, -150125.4245788365, -150098.82600293471, -150139.684991799, -150117.19913687697, -0.2385625, 0.1795, 0.8884062500000001, 192.0, 0.0, 0.0, 0.0, 0.0, 0.0, 0.0, 0.0, 0.0, 0.0, 1.738712568968951E9, 0.0, 2025-02-04 18:42:48.968
120.0, 50706.18399455357, 187332.98776542995, -128890.61914570561, -83075.9579629848, -41670.42424326232, -16615.705682719432, -128830.31413916519, -152757.9012820603, -143024.94591771913, -136297.89785121655, -150157.20875945195, -150069.25464502032, -150124.75402650287, -150098.22250583442, -150139.0814946987, -150116.6850467545, -0.2385625, 0.1795, 0.8884062500000001, 192.0, 0.0, 0.0, 0.0, 0.0, 0.0, 0.0, 0.0, 0.0, 0.0, 1.738712568976928E9, 0.0, 2025-02-04 18:42:48.976
122.0, 50492.881297216576, 187336.09465790924, -129374.46735792964, -83376.2312979974, -41881.55882138715, -16786.294196402338, -129285.6638772087, -152746.97127902167, -143020.4085135947, -136712.88033877377, -150157.07464898523, -150069.18758978698, -150124.5752125472, -150098.20015408995, -150139.01443946536, -150116.57328803223, -0.2385625, 0.1795, 0.8884062500000001, 192.0, 0.0, 0.0, 0.0, 0.0, 0.0, 0.0, 0.0, 0.0, 0.0, 1.738712568983977E9, 0.0, 2025-02-04 18:42:48.983
124.0, 50278.97510277929, 187338.46394282152, -129860.30487541019, -83677.15283359919, -42094.19096639049, -16954.334611217335, -129741.63946409697, -152735.43777888274, -143029.03628695445, -137128.53337866467, -150157.454628641, -150069.54521769827, -150125.11165441416, -150098.66954072352, -150139.43912261, -150116.95326768796, -0.2385625, 0.1795, 0.8884062500000001, 192.0, 0.0, 0.0, 0.0, 0.0, 0.0, 0.0, 0.0, 0.0, 0.0, 1.738712568992995E9, 0.0, 2025-02-04 18:42:48.992
126.0, 50064.44305949725, 187341.01204168942, -130344.84599171234, -83981.58359308048, -42307.29249802739, -17115.71420618465, -130193.94936489456, -152723.92663048825, -143017.56984204886, -137546.1086685787, -150156.0464687403, -150068.15940954202, -150123.70349451347, -150097.23902907837, -150138.00861096487, -150115.61216302065, -0.33128124999999997, 0.17375000000000002, 0.8602031250000001, 192.0, 121.0, 96.0, 2.5, 32.0, 13.0, 0.0, 0.0, 0.0, 0.0, 1.738712569001047E9, 0.0, 2025-02-04 18:42:49.001
128.0, 49849.82160923739, 187346.17529465858, -130824.76029691224, -84282.23690774881, -42515.81192205095, -17274.948033684257, -130643.08531797951, -152715.07533968394, -143023.31424037387, -137964.22040035969, -150156.8958350296, -150068.9193688535, -150124.5305090583, -150098.02134013432, -150138.947384232, -150116.41682582104, -0.33128124999999997, 0.17375000000000002, 0.8602031250000001, 192.0, 0.0, 0.0, 0.0, 0.0, 0.0, 0.0, 0.0, 0.0, 0.0, 1.738712569008091E9, 0.0, 2025-02-04 18:42:49.008
130.0, 49638.91054855711, 187348.76809701542, -131305.97100329056, -84583.49371951744, -42723.772552463124, -17436.97582924078, -131093.22709956495, -152703.87711571183, -143019.93912696114, -138381.6168763181, -150158.192236208, -150070.08165956518, -150125.71515151445, -150099.183630846, -150140.0873231992, -150117.62382002163, -0.33128124999999997, 0.17375000000000002, 0.8602031250000001, 192.0, 0.0, 0.0, 0.0, 0.0, 0.0, 0.0, 0.0, 0.0, 0.0, 1.73871256901613E9, 0.0, 2025-02-04 18:42:49.016
132.0, 49424.19969131943, 187352.52319008388, -131790.9591544818, -84886.87394700933, -42935.175351521415, -17602.468145187875, -131543.72650906164, -152693.77412721803, -143023.5601095629, -138799.8180150769, -150158.3486984192, -150070.2157700319, -150125.8716137256, -150099.31774131273, -150140.17673017702, -150117.8249857217, -0.33128124999999997, 0.17375000000000002, 0.8602031250000001, 192.0, 0.0, 0.0, 0.0, 0.0, 0.0, 0.0, 0.0, 0.0, 0.0, 1.738712569025171E9, 0.0, 2025-02-04 18:42:49.025
134.0, 49206.046665435635, 187355.94300698556, -132275.41086380612, -85190.72356113477, -43146.95813023545, -17766.37348727864, -131993.37655226907, -152683.31351081296, -143018.32980136035, -139221.8189503931, -150157.9016635301, -150069.94754909846, -150125.46928232544, -150098.9824651459, -150140.0426197103, -150117.51206129935, -0.33128124999999997, 0.17375000000000002, 0.8602031250000001, 192.0, 0.0, 0.0, 0.0, 0.0, 0.0, 0.0, 0.0, 0.0, 0.0, 1.738712569032207E9, 0.0, 2025-02-04 18:42:49.032
136.0, 48992.45339542072, 187357.46292560853, -132761.0472155866, -85489.92401241351, -43356.662196715144, -17926.00964617844, -132443.76420304348, -152670.86358915135, -143023.69422002963, -139641.09297288573, -150158.66162284155, -150070.59574968767, -150126.16218640356, -150099.60831399064, -150140.4449511105, -150118.04850316627, -0.33128124999999997, 0.17375000000000002, 0.8602031250000001, 192.0, 0.0, 0.0, 0.0, 0.0, 0.0, 0.0, 0.0, 0.0, 0.0, 1.738712569040235E9, 0.0, 2025-02-04 18:42:49.040
138.0, 48778.189573072144, 187361.68740531057, -133243.5543231433, -85789.32562939235, -43564.86869631633, -18088.685642324166, -132894.35301951802, -152661.09587682437, -143023.87303398526, -140059.316463389, -150157.5887391077, -150069.38875548707, -150124.99989569187, -150098.5801337457, -150139.30501214328, -150116.9756194324, -0.436, 0.164, 0.87, 192.0, 121.0, 48.0, 2.5, 16.0, 13.5, 24.0, 0.0, 0.0, 0.0, 1.738712569049295E9, 0.0, 2025-02-04 18:42:49.049
140.0, 48563.94810246803, 187363.22967567798, -133725.92732023328, -86088.54843241554, -43775.51153606314, -18252.61333615939, -133346.50645810444, -152648.86947260733, -143014.57470829185, -140484.69251211794, -150157.9910705079, -150069.90284560953, -150125.40222709207, -150098.91540991253, -150139.70734354347, -150117.3779508326, -0.436, 0.164, 0.87, 192.0, 0.0, 0.0, 0.0, 0.0, 0.0, 0.0, 0.0, 0.0, 0.0, 1.738712569056338E9, 0.0, 2025-02-04 18:42:49.056
142.0, 48349.81839058619, 187365.55425710135, -134206.26630857782, -86388.79941568368, -43987.115500821536, -18416.295160805603, -133800.24687054718, -152637.31362072393, -143015.49112981453, -140912.32608703687, -150157.00759375186, -150068.9193688535, -150124.39639859158, -150097.84252617866, -150138.85797725417, -150116.34977058767, -0.436, 0.164, 0.87, 192.0, 0.0, 0.0, 0.0, 0.0, 0.0, 0.0, 0.0, 0.0, 0.0, 1.738712569064386E9, 0.0, 2025-02-04 18:42:49.064
144.0, 48136.62745197147, 187368.14705945816, -134684.4818811991, -86688.53630882935, -44195.724331822916, -18578.25590112876, -134250.50041085487, -152625.71306535162, -143024.2083101521, -141334.9975746867, -150155.53237861782, -150067.48885720837, -150123.05529392426, -150096.52377325582, -150137.44981735348, -150115.00866592035, -0.436, 0.164, 0.87, 192.0, 0.0, 0.0, 0.0, 0.0, 0.0, 0.0, 0.0, 0.0, 0.0, 1.738712569072425E9, 0.0, 2025-02-04 18:42:49.072
146.0, 47925.314059890996, 187372.4162426491, -135164.3514829101, -86989.56960315343, -44403.68496223509, -18741.557746119233, -134702.13975931882, -152616.03476000248, -143026.66700204217, -141757.28908268083, -150156.2476344404, -150068.18176128648, -150123.74819800237, -150097.17197384502, -150138.00861096487, -150115.72392174293, -0.436, 0.164, 0.87, 192.0, 0.0, 0.0, 0.0, 0.0, 0.0, 0.0, 0.0, 0.0, 0.0, 1.738712569081519E9, 0.0, 2025-02-04 18:42:49.081
148.0, 47711.050237542426, 187376.50661188446, -135649.40668933472, -87291.13933934443, -44614.23839500408, -18906.334806243754, -135154.71788104987, -152606.2223441866, -143016.11697865927, -142185.03441632204, -150157.4993321299, -150069.3664037426, -150124.91048871406, -150098.3789680456, -150139.37206737662, -150116.9309159435, -0.434, 0.13, 0.862, 192.0, 121.0, 56.0, 2.0, 8.0, 13.0, 120.0, 0.0, 0.0, 0.0, 1.738712569088526E9, 0.0, 2025-02-04 18:42:49.088
150.0, 47496.78641519385, 187379.5688008748, -136130.55034047968, -87590.80917725673, -44824.23303416169, -19072.20710184659, -135607.38540975875, -152595.44880335915, -143024.07419968536, -142614.27731684176, -150157.96871876344, -150069.90284560953, -150125.31282011425, -150098.75894770134, -150139.7967505213, -150117.42265432153, -0.434, 0.13, 0.862, 192.0, 0.0, 0.0, 0.0, 0.0, 0.0, 0.0, 0.0, 0.0, 0.0, 1.738712569096552E9, 0.0, 2025-02-04 18:42:49.096
152.0, 47281.852040511614, 187381.06636775332, -136611.06814277984, -87888.33324770132, -45032.84186516308, -19236.98416197111, -136057.2589704107, -152582.97652995307, -143017.88276647124, -143046.2024266961, -150156.91818677404, -150068.78525838678, -150124.35169510267, -150097.79782268975, -150138.61210806516, -150116.39447407657, -0.434, 0.13, 0.862, 192.0, 0.0, 0.0, 0.0, 0.0, 0.0, 0.0, 0.0, 0.0, 0.0, 1.738712569104617E9, 0.0, 2025-02-04 18:42:49.104
154.0, 47066.11300302899, 187382.3851206762, -137090.356599135, -88185.29852453453, -45244.15525724355, -19400.64363487287, -136503.31038276083, -152570.39249782474, -143006.5057285435, -143796.12580491614, -150157.23111119642, -150069.20994153142, -150124.7316747584, -150098.20015408995, -150139.17090167652, -150116.77445373233, -0.434, 0.13, 0.862, 192.0, 0.0, 0.0, 0.0, 0.0, 0.0, 0.0, 0.0, 0.0, 0.0, 1.73871256911264E9, 0.0, 2025-02-04 18:42:49.112
156.0, 46850.61983473538, 187382.60863812073, -137571.29908457983, -88485.0354176802, -45459.469611581524, -19564.616032197006, -136952.1334114234, -152556.69087847363, -142992.6029434923, -144063.4526686016, -150156.98524200742, -150068.7629066423, -150124.3740468471, -150097.84252617866, -150138.7909220208, -150116.3274188432, -0.434, 0.13, 0.862, 192.0, 0.0, 0.0, 0.0, 0.0, 0.0, 0.0, 0.0, 0.0, 0.0, 1.738712569120678E9, 0.0, 2025-02-04 18:42:49.120
158.0, 46635.93132924215, 187384.44148116608, -138052.50979095814, -88784.12411023666, -45673.55461997445, -19731.784728978244, -137401.87286160863, -152544.5985847233, -143001.23071685203, -144051.82976148484, -150159.22041645294, -150071.13219155459, -150126.89979397057, -150100.23416283538, -150141.0931516997, -150118.5849450332, -0.4, 0.092, 0.9, 192.0, 121.5, 64.0, 1.0, 112.0, 14.0, 16.0, 0.0, 0.0, 0.0, 1.738712569128733E9, 0.0, 2025-02-04 18:42:49.128
160.0, 46426.942518585034, 187386.9225248006, -138532.37939266913, -89080.64235218077, -45882.85635505395, -19897.41115539207, -137850.0923931709, -152533.17684330666, -143008.5620890334, -144039.8492264568, -150162.21555020995, -150074.03791833378, -150129.8725759831, -150103.40811054804, -150144.0435819678, -150121.6247822791, -0.4, 0.092, 0.9, 192.0, 0.0, 0.0, 0.0, 0.0, 0.0, 0.0, 0.0, 0.0, 0.0, 1.738712569136814E9, 0.0, 2025-02-04 18:42:49.136
162.0, 46218.22192886138, 187388.64360912368, -139010.9078897128, -89376.37828306893, -46093.476843056305, -20060.668296893633, -138297.93194507743, -152520.70456990058, -143013.12184490226, -144026.68404897262, -150164.18250372203, -150075.9825201014, -150131.8395294952, -150105.30800882675, -150145.9434802465, -150123.59173579118, -0.4, 0.092, 0.9, 192.0, 0.0, 0.0, 0.0, 0.0, 0.0, 0.0, 0.0, 0.0, 0.0, 1.738712569143823E9, 0.0, 2025-02-04 18:42:49.143
164.0, 46006.0591704916, 187389.76119634643, -139490.88925014608, -89673.83529828016, -46305.05845607024, -20229.24515357556, -138747.58198828483, -152507.96407556106, -143020.43086533915, -144015.82110116736, -150166.21651246745, -150077.99417710237, -150133.91824172952, -150107.40907280555, -150147.95513724748, -150125.6257445366, -0.4, 0.092, 0.9, 192.0, 0.0, 0.0, 0.0, 0.0, 0.0, 0.0, 0.0, 0.0, 0.0, 1.738712569152835E9, 0.0, 2025-02-04 18:42:49.152
166.0, 45793.561135954995, 187393.60569639274, -139970.9823693016, -89971.62758965822, -46519.12111271872, -20398.045527702037, -139198.84135709304, -152498.06225276735, -143029.86330149928, -144007.12627257424, -150168.96577703545, -150080.89990388154, -150136.8463202532, -150110.3818548181, -150150.88321577111, -150128.50911957136, -0.4, 0.092, 0.9, 192.0, 0.0, 0.0, 0.0, 0.0, 0.0, 0.0, 0.0, 0.0, 0.0, 1.738712569160931E9, 0.0, 2025-02-04 18:42:49.160
168.0, 45580.23608687354, 187397.00316154995, -140448.23681691132, -90271.02920663706, -46729.160455365236, -20564.87894831645, -139648.69256600054, -152487.4004706622, -143038.1110952033, -143998.54320270338, -150174.24078872692, -150086.15256382854, -150142.25544241138, -150115.679218254, -150156.06882048474, -150133.76177951836, -0.316, 0.044, 0.918, 192.0, 123.0, 16.0, 0.5, 48.0, 14.0, 88.0, 0.0, 0.0, 0.0, 1.738712569167932E9, 0.0, 2025-02-04 18:42:49.167
170.0, 45367.827459314765, 187398.61248715073, -140925.02187788748, -90568.10624219255, -46941.122048034915, -20730.974761363836, -140098.34260920796, -152475.2411216785, -143044.7048598176, -143988.44021420958, -150176.07363177225, -150087.94070338496, -150144.15534069008, -150117.55676478826, -150157.87931178563, -150135.5275673303, -0.316, 0.044, 0.918, 192.0, 0.0, 0.0, 0.0, 0.0, 0.0, 0.0, 0.0, 0.0, 0.0, 1.738712569175979E9, 0.0, 2025-02-04 18:42:49.175
172.0, 45154.725927677864, 187403.0828360418, -141403.9303545869, -90864.0433387808, -47155.38587038349, -20896.1318011441, -140552.46300130643, -152466.00985121846, -143054.42786865568, -143980.8406210948, -150180.58868415223, -150092.41105227603, -150148.71509655894, -150122.1835758905, -150162.3943641656, -150140.10967494367, -0.316, 0.044, 0.918, 192.0, 0.0, 0.0, 0.0, 0.0, 0.0, 0.0, 0.0, 0.0, 0.0, 1.738712569185023E9, 0.0, 2025-02-04 18:42:49.185
174.0, 44941.087954174036, 187402.7922633639, -141880.7377673075, -91160.24865630253, -47366.028710130304, -21060.439474635063, -141006.24811723808, -152451.9282522116, -143065.5143339055, -143975.6326646367, -150183.02502429785, -150094.89209591056, -150151.2855471713, -150124.7763782473, -150164.85305605567, -150142.5460150893, -0.316, 0.044, 0.918, 192.0, 0.0, 0.0, 0.0, 0.0, 0.0, 0.0, 0.0, 0.0, 0.0, 1.738712569193065E9, 0.0, 2025-02-04 18:42:49.193
176.0, 44729.48398941565, 187405.65328665415, -142355.8017439606, -91459.62792153691, -47578.25852373344, -21223.428395203162, -141458.80388722467, -152440.95354568405, -143074.522086921, -143968.0777750108, -150184.9919778099, -150096.90375291154, -150153.4536663835, -150126.7209800149, -150166.86471305665, -150144.4906168569, -0.316, 0.044, 0.918, 192.0, 0.0, 0.0, 0.0, 0.0, 0.0, 0.0, 0.0, 0.0, 0.0, 1.738712569200118E9, 0.0, 2025-02-04 18:42:49.200
178.0, 44515.9577746341, 187408.69312390007, -142830.0610578133, -91755.78853556974, -47787.80612800195, -21387.445496016204, -141910.08560777732, -152430.29176357886, -143081.60758991333, -143959.2711876954, -150189.1941057675, -150101.03882563577, -150157.5887391077, -150130.9901632059, -150170.99978578088, -150148.60333783668, -0.246, 0.0, 0.9580000000000001, 192.0, 124.0, 40.0, 0.0, 0.0, 14.5, 120.0, 0.0, 0.0, 0.0, 1.738712569208156E9, 0.0, 2025-02-04 18:42:49.208
180.0, 44299.63759179564, 187409.96717333404, -143307.58372635648, -92057.55943746083, -47998.00193285965, -21553.720123019233, -142366.3964708324, -152418.1771180841, -143091.50941270703, -143953.19151320358, -150192.01042556888, -150103.87749718162, -150160.42741065353, -150133.9852969629, -150173.92786430454, -150151.53141636032, -0.246, 0.0, 0.9580000000000001, 192.0, 0.0, 0.0, 0.0, 0.0, 0.0, 0.0, 0.0, 0.0, 0.0, 1.738712569217199E9, 0.0, 2025-02-04 18:42:49.217
182.0, 44078.8023565772, 187411.46474021254, -143786.29103735578, -92360.805554486, -48208.35419992855, -21721.313502945126, -142824.60723216622, -152406.2636382894, -143103.48994773507, -143947.73768755648, -150194.11148954768, -150105.91150592704, -150162.6402333546, -150136.10871268617, -150175.96187304996, -150153.4983698724, -0.246, 0.0, 0.9580000000000001, 192.0, 0.0, 0.0, 0.0, 0.0, 0.0, 0.0, 0.0, 0.0, 0.0, 1.738712569224244E9, 0.0, 2025-02-04 18:42:49.224
184.0, 43861.99043536073, 187414.75044664746, -144262.13732506483, -92659.871895298, -48415.75603672934, -21887.185798547962, -143282.70623477772, -152396.2724085179, -143114.3305437959, -143942.6191380762, -150198.1571552941, -150109.93481992898, -150166.68589910102, -150140.10967494367, -150180.07459402975, -150157.63344259662, -0.246, 0.0, 0.9580000000000001, 192.0, 0.0, 0.0, 0.0, 0.0, 0.0, 0.0, 0.0, 0.0, 0.0, 1.7387125692323E9, 0.0, 2025-02-04 18:42:49.232
186.0, 43642.56336004298, 187415.26453676994, -144736.32958368416, -92959.18410529902, -48623.78372237489, -22051.292306338826, -143736.2231297759, -152383.50956243393, -143124.2770700785, -143937.83586476278, -150201.3534547512, -150113.19817461947, -150169.9939572804, -150143.4400848675, -150183.2485417424, -150160.82974205373, -0.246, 0.0, 0.9580000000000001, 192.0, 0.0, 0.0, 0.0, 0.0, 0.0, 0.0, 0.0, 0.0, 0.0, 1.738712569240384E9, 0.0, 2025-02-04 18:42:49.240
188.0, 43409.92640375214, 187416.65034492617, -145072.3433580808, -93294.28145817298, -48842.6296523368, -22221.769061299452, -144203.03931272498, -152372.19957973954, -143136.81639871793, -143934.68426879458, -150203.47687047446, -150115.29923859827, -150172.0950212592, -150145.60820407968, -150185.28255048784, -150163.0425647548, -0.166, -0.03, 0.9380000000000001, 192.0, 125.0, 104.0, 127.5, 8.0, 14.5, 40.0, 0.0, 0.0, 0.0, 1.738712569249376E9, 0.0, 2025-02-04 18:42:49.249
190.0, 43166.56061012275, 187417.52206295994, -145022.40956096764, -93678.84322152653, -49072.96437894874, -22404.695737921684, -144684.36177782557, -152361.20252146752, -143152.52967507002, -143933.16435017163, -150206.2484867869, -150118.07085491074, -150174.95604454947, -150148.58098609222, -150188.07651854475, -150165.81418106725, -0.166, -0.03, 0.9380000000000001, 192.0, 0.0, 0.0, 0.0, 0.0, 0.0, 0.0, 0.0, 0.0, 0.0, 1.738712569256409E9, 0.0, 2025-02-04 18:42:49.256
192.0, 42924.17829324941, 187418.75140890497, -145046.1247618347, -94053.21258940847, -49301.04157937069, -22584.04613543107, -145162.17501904667, -152349.37844865065, -143167.39358513278, -143932.0244112044, -150209.42243449957, -150121.31185785675, -150178.28645447333, -150151.8443407827, -150191.31752149077, -150169.01048052436, -0.166, -0.03, 0.9380000000000001, 192.0, 0.0, 0.0, 0.0, 0.0, 0.0, 0.0, 0.0, 0.0, 0.0, 1.738712569264461E9, 0.0, 2025-02-04 18:42:49.264
194.0, 42664.16045000082, 187420.78541765042, -145036.3794012522, -94446.6926987997, -49544.541483466804, -22784.13895179498, -145624.16322519342, -152341.6670968136, -143182.3469021734, -143930.61625130373, -150212.17169906758, -150124.0834741692, -150180.99101555243, -150154.4371431395, -150194.13384129215, -150171.69268985902, -0.166, -0.03, 0.9380000000000001, 192.0, 0.0, 0.0, 0.0, 0.0, 0.0, 0.0, 0.0, 0.0, 0.0, 1.738712569272539E9, 0.0, 2025-02-04 18:42:49.272
196.0, 42366.81519351187, 187425.1887113081, -145027.03637206988, -94883.73635813432, -49831.29201308394, -23021.827402332714, -145614.28375414418, -152338.47079735648, -143199.2448209816, -143930.5715478148, -150217.04437935882, -150128.8890992271, -150185.88604758814, -150159.37687866413, -150198.8947628611, -150176.56537015026, -0.166, -0.03, 0.9380000000000001, 192.0, 0.0, 0.0, 0.0, 0.0, 0.0, 0.0, 0.0, 0.0, 0.0, 1.738712569279535E9, 0.0, 2025-02-04 18:42:49.279
198.0, 42069.291123067276, 187424.85343514127, -144989.23957219598, -95319.86359594627, -50120.92591773581, -23263.561518616858, -145520.3393721985, -152330.08889318572, -143218.64613516882, -143933.00788796044, -150221.71589395, -150133.51591032936, -150190.55756217928, -150164.0483932553, -150203.58862919672, -150181.16982950806, -0.058, -0.064, 0.996, 192.0, 127.0, 24.0, 127.0, 0.0, 15.5, 16.0, 0.0, 0.0, 0.0, 1.738712569288578E9, 0.0, 2025-02-04 18:42:49.288
200.0, 41774.98570382425, 187428.9885078655, -145042.4814274885, -95749.62058658845, -50406.69297059691, -23498.456001097682, -145421.56701345052, -152326.08793092825, -143235.87933014386, -143933.49962633845, -150223.8616614177, -150135.66167779706, -150192.65862615808, -150166.03769851182, -150205.68969317552, -150183.33794872023, -0.058, -0.064, 0.996, 192.0, 0.0, 0.0, 0.0, 0.0, 0.0, 0.0, 0.0, 0.0, 0.0, 1.738712569296628E9, 0.0, 2025-02-04 18:42:49.296
202.0, 41478.132185713315, 187430.41901951065, -144965.74788877345, -96194.73322567144, -50694.85166011473, -23738.245515614217, -145325.11923612587, -152317.1472331461, -143250.43031578427, -143931.93500422657, -150228.73434170894, -150140.42259936602, -150197.41954772707, -150170.97743403644, -150210.42826300007, -150188.18827726704, -0.058, -0.064, 0.996, 192.0, 0.0, 0.0, 0.0, 0.0, 0.0, 0.0, 0.0, 0.0, 0.0, 1.73871256930472E9, 0.0, 2025-02-04 18:42:49.304
204.0, 41192.119263663204, 187433.4365050121, -145033.3842674952, -96614.23076560865, -50972.21445706063, -23970.4577887604, -145193.80273745093, -152307.49127954143, -143266.09888864742, -143931.46561759303, -150231.64006848814, -150143.52949184531, -150200.5040884619, -150173.92786430454, -150213.4010450126, -150191.11635579067, -0.058, -0.064, 0.996, 192.0, 0.0, 0.0, 0.0, 0.0, 0.0, 0.0, 0.0, 0.0, 0.0, 1.738712569313719E9, 0.0, 2025-02-04 18:42:49.313
206.0, 40937.21996989488, 187437.5939294808, -144971.29112139836, -97013.11999715805, -51220.18471004781, -24173.076352247757, -145435.38039152388, -152305.59138126273, -143284.2261534007, -143933.38786761617, -150235.50692027892, -150147.30693665828, -150204.2591815304, -150177.81706783976, -150217.33495203673, -150194.8938006036, -0.058, -0.064, 0.996, 192.0, 0.0, 0.0, 0.0, 0.0, 0.0, 0.0, 0.0, 0.0, 0.0, 1.738712569319812E9, 0.0, 2025-02-04 18:42:49.319
208.0, 40658.80664095958, 187441.0808016158, -145021.78371212288, -97427.63309808173, -51492.67482670246, -24393.129276410258, -145606.5724023071, -152301.21043934947, -143300.81114778653, -143933.99136471646, -150242.2124436155, -150154.12421871713, -150211.0094083559, -150184.52259117636, -150223.99577188442, -150201.6440274291, -0.006000000000000002, -0.079, 0.966, 192.0, 0.5, 56.0, 126.5, 8.0, 14.5, 32.0, 0.0, 0.0, 0.0, 1.738712569328814E9, 0.0, 2025-02-04 18:42:49.328
210.0, 40363.2271722826, 187441.95251964958, -144944.37962107416, -97867.22485628424, -51781.54877204285, -24633.231715349164, -145513.61149711747, -152293.2532183234, -143314.44571190426, -143932.60555656024, -150243.77706572736, -150155.57708210673, -150212.61873395668, -150186.0425097993, -150225.5156905074, -150203.23100128546, -0.006000000000000002, -0.079, 0.966, 192.0, 0.0, 0.0, 0.0, 0.0, 0.0, 0.0, 0.0, 0.0, 0.0, 1.738712569335836E9, 0.0, 2025-02-04 18:42:49.335
212.0, 40070.84400306273, 187446.8922551742, -145016.35223822025, -98283.81666944227, -52061.25850215656, -24868.10384608553, -145418.39306573785, -152289.72164269944, -143328.9743458002, -143931.55502457084, -150248.3144698518, -150160.11448623115, -150217.1561380811, -150190.6022656682, -150230.03074288735, -150207.76840540988, -0.006000000000000002, -0.079, 0.966, 192.0, 0.0, 0.0, 0.0, 0.0, 0.0, 0.0, 0.0, 0.0, 0.0, 1.738712569343888E9, 0.0, 2025-02-04 18:42:49.343
214.0, 39775.64451404149, 187450.66969998716, -144955.71195551302, -98721.62028808836, -52346.869092806475, -25105.881703601088, -145327.91320418278, -152284.6030932192, -143345.55934018604, -143931.51032108194, -150253.72359200998, -150165.56831187825, -150222.54290849483, -150195.944332593, -150235.46221679, -150213.1551758236, -0.006000000000000002, -0.079, 0.966, 192.0, 0.0, 0.0, 0.0, 0.0, 0.0, 0.0, 0.0, 0.0, 0.0, 1.738712569352933E9, 0.0, 2025-02-04 18:42:49.352
216.0, 39487.79874894604, 187450.58029300932, -144979.2706941689, -99141.34134547012, -52629.35043923264, -25335.657636601645, -145219.01550519653, -152271.32615701272, -143360.35619501545, -143930.63860304817, -150256.18228390007, -150167.98230027943, -150225.04630387382, -150198.4030244831, -150237.94326042454, -150215.68092294704, -0.006000000000000002, -0.079, 0.966, 192.0, 0.0, 0.0, 0.0, 0.0, 0.0, 0.0, 0.0, 0.0, 0.0, 1.73871256935996E9, 0.0, 2025-02-04 18:42:49.359
218.0, 39220.24836781602, 187453.62013025527, -144937.02589714836, -99550.40062074669, -52886.842535357784, -25542.925362935708, -145223.82113025442, -152266.87815986612, -143371.71088119876, -143927.08467567977, -150258.2609961344, -150170.06101251376, -150227.19207134153, -150200.48173671745, -150240.1113796367, -150217.73728343693, 0.077, -0.0765, 0.9390000000000001, 192.0, 2.5, 0.0, 126.5, 88.0, 14.0, 64.0, 0.0, 0.0, 0.0, 1.738712569368016E9, 0.0, 2025-02-04 18:42:49.368
220.0, 38957.77183267735, 187457.3528715793, -144976.5214296009, -99941.84672139249, -53142.300622737486, -25747.19795551276, -145579.30327407163, -152262.76543888636, -143383.98198890474, -143924.71539076752, -150262.5078275809, -150174.41960268255, -150231.43890278804, -150204.84032688622, -150244.44761806104, -150222.09587360572, 0.077, -0.0765, 0.9390000000000001, 192.0, 0.0, 0.0, 0.0, 0.0, 0.0, 0.0, 0.0, 0.0, 0.0, 1.738712569376066E9, 0.0, 2025-02-04 18:42:49.376
222.0, 38663.55582041214, 187458.47045880204, -144935.8189029478, -100380.81263075027, -53430.10168434402, -25983.791170572185, -145513.52209013965, -152255.74699112738, -143398.82354722306, -143924.42481808958, -150266.1064584382, -150177.92882656204, -150234.97047841197, -150208.461309488, -150248.02389717387, -150225.7168562075, 0.077, -0.0765, 0.9390000000000001, 192.0, 0.0, 0.0, 0.0, 0.0, 0.0, 0.0, 0.0, 0.0, 0.0, 1.738712569385097E9, 0.0, 2025-02-04 18:42:49.385
224.0, 38373.385473893344, 187460.92915069213, -144940.82569370576, -100804.35583643387, -53711.912478436534, -26215.399946618076, -145415.80026338104, -152249.935537569, -143411.31817237358, -143921.27322212138, -150267.89459799466, -150179.64991088508, -150236.80332145732, -150210.2047455555, -150249.8120367303, -150227.43794053054, 0.077, -0.0765, 0.9390000000000001, 192.0, 0.0, 0.0, 0.0, 0.0, 0.0, 0.0, 0.0, 0.0, 0.0, 1.738712569392141E9, 0.0, 2025-02-04 18:42:49.392
226.0, 38077.806005216364, 187461.86792395925, -144949.20759787652, -101235.76685616576, -53994.52793532943, -26450.696760499093, -145320.0006866456, -152242.49240666538, -143422.69521030132, -143916.55700404133, -150270.75562128492, -150182.6450446421, -150239.73139998096, -150213.13282407913, -150252.67306002058, -150230.32131556526, 0.077, -0.0765, 0.9390000000000001, 192.0, 0.0, 0.0, 0.0, 0.0, 0.0, 0.0, 0.0, 0.0, 0.0, 1.738712569400199E9, 0.0, 2025-02-04 18:42:49.400
228.0, 37778.85142312663, 187464.88540946072, -144890.4448617035, -101673.97280621206, -54280.3620434239, -26692.542635505517, -145228.15736867875, -152234.53518563928, -143436.06155348558, -143914.63475401816, -150273.08020270828, -150184.90257083208, -150242.01127791542, -150215.4127020136, -150254.97528969948, -150232.64589698863, 0.17850000000000002, -0.06225, 0.9145000000000001, 192.0, 4.0, 96.0, 127.0, 64.0, 13.5, 104.0, 0.0, 0.0, 0.0, 1.73871256940824E9, 0.0, 2025-02-04 18:42:49.408
230.0, 37489.28457370813, 187467.12058390625, -144946.54774028633, -102090.85519204798, -54555.98140430229, -26922.966769095277, -145104.03813171844, -152225.16980471252, -143449.69611760334, -143913.4724633065, -150276.6788335656, -150188.56825692276, -150245.56520528378, -150218.92192589308, -150258.6633275346, -150236.35628656822, 0.17850000000000002, -0.06225, 0.9145000000000001, 192.0, 0.0, 0.0, 0.0, 0.0, 0.0, 0.0, 0.0, 0.0, 0.0, 1.738712569416283E9, 0.0, 2025-02-04 18:42:49.416
232.0, 37231.65836711626, 187472.12737466424, -144885.16985001205, -102480.15552522607, -54801.381206677106, -27119.393899368515, -145384.3066554435, -152223.89575527856, -143463.73301312127, -143911.2149371165, -150281.68562432358, -150193.61975116967, -150250.52729255287, -150224.0628271178, -150263.64776654815, -150241.27367034837, 0.17850000000000002, -0.06225, 0.9145000000000001, 192.0, 0.0, 0.0, 0.0, 0.0, 0.0, 0.0, 0.0, 0.0, 0.0, 1.738712569424318E9, 0.0, 2025-02-04 18:42:49.424
234.0, 36950.89810501315, 187474.8989909767, -144947.19594087554, -102893.6851493937, -55072.46316343107, -27341.950218910006, -145526.73197111275, -152218.84426103166, -143475.4229754714, -143906.38696031415, -150286.84887729274, -150198.8053558833, -150255.77995249987, -150229.20372834252, -150268.83337126178, -150246.50397855093, 0.17850000000000002, -0.06225, 0.9145000000000001, 192.0, 0.0, 0.0, 0.0, 0.0, 0.0, 0.0, 0.0, 0.0, 0.0, 1.738712569432409E9, 0.0, 2025-02-04 18:42:49.432
236.0, 36653.53049677974, 187477.26827588896, -144866.72966083643, -103335.02034366374, -55358.81136164801, -27580.17511131467, -145437.43675201377, -152212.69753130645, -143487.0235308437, -143902.74362596794, -150289.86636279422, -150201.71108266248, -150258.73038276797, -150232.13180686615, -150271.8732085077, -150249.3650018412, 0.17850000000000002, -0.06225, 0.9145000000000001, 192.0, 0.0, 0.0, 0.0, 0.0, 0.0, 0.0, 0.0, 0.0, 0.0, 1.738712569440419E9, 0.0, 2025-02-04 18:42:49.440
238.0, 36362.510783971644, 187478.11764217826, -144916.3952370161, -103752.59563357779, -55640.82332144062, -27814.309634484012, -145341.9053962118, -152205.4332143585, -143499.8757839055, -143900.0614166333, -150292.6826825956, -150204.52740246386, -150261.52435082488, -150234.88107143415, -150274.6224730757, -150252.24837687594, 0.30525, -0.056125, 0.9052500000000001, 192.0, 6.5, 64.0, 127.0, 56.0, 14.0, 0.0, 0.0, 0.0, 0.0, 1.738712569447458E9, 0.0, 2025-02-04 18:42:49.447
240.0, 36070.440539174146, 187479.57050556786, -144878.62078888665, -104190.80158362408, -55926.65742953509, -28049.919372787404, -145249.6373951003, -152197.99008345488, -143509.55408925464, -143893.2664863189, -150293.30853144033, -150205.13089956416, -150262.0607926918, -150235.50692027892, -150275.20361843152, -150252.7624669984, 0.30525, -0.056125, 0.9052500000000001, 192.0, 0.0, 0.0, 0.0, 0.0, 0.0, 0.0, 0.0, 0.0, 0.0, 1.738712569456499E9, 0.0, 2025-02-04 18:42:49.456
242.0, 35781.7454077894, 187483.23619165854, -144874.08338476223, -104614.9929898969, -56206.8141945379, -28281.438741855472, -145152.92139684217, -152188.57999903918, -143515.63376374647, -143885.19750657052, -150297.60006637574, -150209.46713798848, -150266.3746793717, -150239.97726916996, -150279.5622086003, -150257.07635367828, 0.30525, -0.056125, 0.9052500000000001, 192.0, 0.0, 0.0, 0.0, 0.0, 0.0, 0.0, 0.0, 0.0, 0.0, 1.738712569464549E9, 0.0, 2025-02-04 18:42:49.464
244.0, 35508.00359344525, 187485.35960738178, -144885.32631222325, -105025.46042507415, -56473.44815414526, -28498.608290983237, -145080.85937271826, -152182.34386233616, -143522.74161848327, -143878.46963148948, -150299.2764472099, -150211.210574056, -150268.14046718366, -150241.56424302628, -150281.19388594557, -150258.88684497916, 0.30525, -0.056125, 0.9052500000000001, 192.0, 0.0, 0.0, 0.0, 0.0, 0.0, 0.0, 0.0, 0.0, 0.0, 1.73871256947158E9, 0.0, 2025-02-04 18:42:49.471
246.0, 35252.25493338763, 187489.94171499513, -144870.66356786055, -105416.72771176431, -56722.64775307748, -28698.902273047242, -145465.1752668828, -152179.2146181124, -143532.0175924322, -143872.70288142, -150303.83620307877, -150215.7032746915, -150272.63316781918, -150246.03459191736, -150285.68658658108, -150263.33484212577, 0.30525, -0.056125, 0.9052500000000001, 192.0, 0.0, 0.0, 0.0, 0.0, 0.0, 0.0, 0.0, 0.0, 0.0, 1.738712569480629E9, 0.0, 2025-02-04 18:42:49.480
248.0, 34967.96309566058, 187492.33335165185, -144865.6567771026, -105847.04349601788, -57002.51394540238, -28929.68403454829, -145452.077144632, -152173.40316455404, -143539.4830750803, -143866.33263425026, -150307.14426125816, -150219.07838810424, -150276.00828123192, -150249.38735358565, -150289.10640348273, -150266.73230728297, 0.412625, -0.0350625, 0.8566250000000001, 192.0, 8.0, 32.0, 127.5, 72.0, 12.5, 32.0, 0.0, 0.0, 0.0, 1.738712569489689E9, 0.0, 2025-02-04 18:42:49.489
250.0, 34679.044446831285, 187494.79204354194, -144821.89206145908, -106277.15811457136, -57282.26837900501, -29164.645572262478, -145361.37376563236, -152167.09997261764, -143545.2274734053, -143857.81661961277, -150309.91587757063, -150221.64883871662, -150278.712842311, -150252.1589698981, -150291.74390932845, -150269.4145166176, 0.412625, -0.0350625, 0.8566250000000001, 192.0, 0.0, 0.0, 0.0, 0.0, 0.0, 0.0, 0.0, 0.0, 0.0, 1.738712569498729E9, 0.0, 2025-02-04 18:42:49.498
252.0, 34389.49994915723, 187497.02721798746, -144883.94050406702, -106699.24845686537, -57564.548559731076, -29405.440915279498, -145272.1903052557, -152160.88618765905, -143552.84941826458, -143850.41819219806, -150312.91101132764, -150224.711027707, -150281.7303278125, -150255.17645539957, -150294.85080180774, -150272.34259514126, 0.412625, -0.0350625, 0.8566250000000001, 192.0, 0.0, 0.0, 0.0, 0.0, 0.0, 0.0, 0.0, 0.0, 0.0, 1.738712569504829E9, 0.0, 2025-02-04 18:42:49.504
