%OpenBCI Raw EXG Data
%Number of channels = 8
%Sample Rate = 250 Hz
%Board = OpenBCI_GUI$BoardCytonSerial
Sample Index, EXG Channel 0, EXG Channel 1, EXG Channel 2, EXG Channel 3, EXG Channel 4, EXG Channel 5, EXG Channel 6, EXG Channel 7, Accel Channel 0, Accel Channel 1, Accel Channel 2, Not Used, Digital Channel 0 (D11), Digital Channel 1 (D12), Digital Channel 2 (D13), Digital Channel 3 (D17), Not Used, Digital Channel 4 (D18), Analog Channel 0, Analog Channel 1, Analog Channel 2, Timestamp, Marker Channel, Timestamp (Formatted)
0.0, -4166.186352513594, -4235.968498703062, -4269.920798530674, -4297.815775610898, -187500.02235174447, -183436.18463709173, 3347.3078426489647, -184322.67717393365, 0.002, 0.032, 0.49, 192.0, 0.0, 16.0, 1.0, 0.0, 15.0, 80.0, 0.0, 0.0, 0.0, 1.738881409231802E9, 0.0, 2025-02-06 17:36:49.231
1.0, -4164.889951335186, -4234.582690546834, -4268.534990374445, -4296.318208732392, -187500.02235174447, -183434.10592485737, 3345.7879240260036, -184320.55375821042, 0.002, 0.032, 0.49, 192.0, 0.0, 0.0, 0.0, 0.0, 0.0, 0.0, 0.0, 0.0, 0.0, 1.738881409234622E9, 0.0, 2025-02-06 17:36:49.234
2.0, -4164.845247846276, -4234.515635313468, -4268.445583396624, -4296.206450010115, -187500.02235174447, -183433.81535217946, 3345.7879240260036, -184320.03966808793, 0.002, 0.032, 0.49, 192.0, 0.0, 0.0, 0.0, 0.0, 0.0, 0.0, 0.0, 0.0, 0.0, 1.738881409238638E9, 0.0, 2025-02-06 17:36:49.238
3.0, -4166.834553102798, -4236.639051036722, -4270.613702608789, -4298.486327944556, -187500.02235174447, -183436.02817488054, 3348.246615916087, -184322.11838032227, 0.002, 0.032, 0.49, 192.0, 0.0, 0.0, 0.0, 0.0, 0.0, 0.0, 0.0, 0.0, 0.0, 1.73888140924165E9, 0.0, 2025-02-06 17:36:49.241
4.0, -4169.069727548329, -4238.829521993342, -4272.89358054323, -4300.721502390087, -187500.02235174447, -183438.35275630388, 3350.8841217618137, -184324.24179604554, 0.002, 0.032, 0.49, 192.0, 0.0, 0.0, 0.0, 0.0, 0.0, 0.0, 0.0, 0.0, 0.0, 1.738881409245657E9, 0.0, 2025-02-06 17:36:49.245
5.0, -4169.069727548329, -4238.874225482253, -4272.826525309864, -4300.743854134543, -187500.02235174447, -183437.79396269252, 3350.772363039537, -184323.66065068968, 0.002, 0.032, 0.49, 192.0, 0.0, 0.0, 0.0, 0.0, 0.0, 0.0, 0.0, 0.0, 0.0, 1.738881409249679E9, 0.0, 2025-02-06 17:36:49.249
6.0, -4167.281587991904, -4237.086085925828, -4270.993682264529, -4298.888659344752, -187500.02235174447, -183435.15645684677, 3348.581892082917, -184320.93373786614, 0.002, 0.032, 0.49, 192.0, 0.0, 0.0, 0.0, 0.0, 0.0, 0.0, 0.0, 0.0, 0.0, 1.738881409253711E9, 0.0, 2025-02-06 17:36:49.253
7.0, -4167.840381603287, -4237.801341748398, -4271.75364157601, -4299.514508189501, -187500.02235174447, -183435.69289871372, 3349.4312583722185, -184321.3584210108, 0.004, 0.048, 0.732, 192.0, 0.0, 32.0, 1.0, 128.0, 22.0, 224.0, 0.0, 0.0, 0.0, 1.73888140925873E9, 0.0, 2025-02-06 17:36:49.258
8.0, -4168.086250792295, -4238.114266170772, -4272.066565998383, -4299.872136100786, -187500.02235174447, -183435.73760220263, 3350.0347554725117, -184321.24666228853, 0.004, 0.048, 0.732, 192.0, 0.0, 0.0, 0.0, 0.0, 0.0, 0.0, 0.0, 0.0, 0.0, 1.738881409262737E9, 0.0, 2025-02-06 17:36:49.262
9.0, -4167.8627333477425, -4237.801341748398, -4271.8206968093755, -4299.670970400688, -187500.02235174447, -183435.11175335787, 3349.7218310501376, -184320.39729599922, 0.004, 0.048, 0.732, 192.0, 0.0, 0.0, 0.0, 0.0, 0.0, 0.0, 0.0, 0.0, 0.0, 1.738881409266781E9, 0.0, 2025-02-06 17:36:49.266
10.0, -4168.287416492393, -4238.293080126415, -4272.2900834429365, -4300.274467500981, -187500.02235174447, -183435.31291905796, 3350.325328150431, -184320.44199948813, 0.004, 0.048, 0.732, 192.0, 0.0, 0.0, 0.0, 0.0, 0.0, 0.0, 0.0, 0.0, 0.0, 1.738881409269781E9, 0.0, 2025-02-06 17:36:49.269
11.0, -4168.10860253675, -4238.024859192951, -4272.021862509473, -4300.006246567517, -187500.02235174447, -183434.66471846876, 3350.0347554725117, -184319.6596884322, 0.004, 0.048, 0.732, 192.0, 0.0, 0.0, 0.0, 0.0, 0.0, 0.0, 0.0, 0.0, 0.0, 1.738881409273795E9, 0.0, 2025-02-06 17:36:49.273
12.0, -4167.929788581108, -4237.778990003942, -4271.79834506492, -4299.782729122964, -187500.02235174447, -183434.10592485737, 3349.7218310501376, -184318.89972912072, 0.004, 0.048, 0.732, 192.0, 0.0, 0.0, 0.0, 0.0, 0.0, 0.0, 0.0, 0.0, 0.0, 1.738881409277811E9, 0.0, 2025-02-06 17:36:49.277
13.0, -4166.096945535773, -4235.9014434696965, -4269.853743297308, -4297.815775610898, -187500.02235174447, -183431.37901203384, 3347.3748978823305, -184316.12811280825, 0.004, 0.048, 0.732, 192.0, 0.0, 0.0, 0.0, 0.0, 0.0, 0.0, 0.0, 0.0, 0.0, 1.738881409281849E9, 0.0, 2025-02-06 17:36:49.281
14.0, -4165.113468779739, -4234.850911480297, -4268.780859563453, -4296.675836643677, -187500.02235174447, -183429.65792771077, 3346.1232001928333, -184314.3623249963, 0.004, 0.048, 0.732, 192.0, 0.0, 0.0, 0.0, 0.0, 0.0, 0.0, 0.0, 0.0, 0.0, 1.738881409285863E9, 0.0, 2025-02-06 17:36:49.285
15.0, -4164.889951335186, -4234.672097524654, -4268.691452585632, -4296.51937443249, -187500.02235174447, -183429.09913409938, 3345.966737981646, -184313.66942091816, 0.004, 0.048, 0.732, 192.0, 0.0, 0.0, 0.0, 0.0, 0.0, 0.0, 0.0, 0.0, 0.0, 1.738881409289919E9, 0.0, 2025-02-06 17:36:49.289
16.0, -4167.058070547351, -4236.929623714641, -4270.926627031163, -4298.888659344752, -187500.02235174447, -183431.53547424503, 3348.80540952747, -184315.94929885262, 0.004, 0.048, 0.732, 192.0, 0.0, 0.0, 0.0, 0.0, 0.0, 0.0, 0.0, 0.0, 0.0, 1.7388814092949E9, 0.0, 2025-02-06 17:36:49.294
17.0, -4169.427355459614, -4239.4777225825455, -4273.430022410157, -4301.414406468201, -187500.02235174447, -183434.21768357966, 3351.800543284481, -184318.43034248715, 0.008, 0.048, 0.852, 192.0, 0.0, 64.0, 1.0, 128.0, 26.0, 160.0, 0.0, 0.0, 0.0, 1.738881409297902E9, 0.0, 2025-02-06 17:36:49.297
18.0, -4167.7509746254655, -4237.734286515032, -4271.8206968093755, -4299.603915167322, -187500.02235174447, -183431.69193645622, 3349.6994793056824, -184315.72578140805, 0.008, 0.048, 0.852, 192.0, 0.0, 0.0, 0.0, 0.0, 0.0, 0.0, 0.0, 0.0, 0.0, 1.738881409301932E9, 0.0, 2025-02-06 17:36:49.301
19.0, -4166.432221702602, -4236.370830103258, -4270.390185164236, -4298.128700033271, -187500.02235174447, -183429.50146549958, 3347.9560432381686, -184313.4011999847, 0.008, 0.048, 0.852, 192.0, 0.0, 0.0, 0.0, 0.0, 0.0, 0.0, 0.0, 0.0, 0.0, 1.738881409305946E9, 0.0, 2025-02-06 17:36:49.305
20.0, -4165.672262391122, -4235.7226295140545, -4269.6078741083, -4297.368740721791, -187500.02235174447, -183428.294471299, 3346.905511248769, -184311.97068833956, 0.008, 0.048, 0.852, 192.0, 0.0, 0.0, 0.0, 0.0, 0.0, 0.0, 0.0, 0.0, 0.0, 1.738881409309985E9, 0.0, 2025-02-06 17:36:49.309
21.0, -4164.1076402792505, -4234.090952168817, -4267.931493274152, -4295.602952909822, -187500.02235174447, -183426.03694510902, 3345.005612970068, -184309.7131621496, 0.008, 0.048, 0.852, 192.0, 0.0, 0.0, 0.0, 0.0, 0.0, 0.0, 0.0, 0.0, 0.0, 1.738881409313986E9, 0.0, 2025-02-06 17:36:49.313
22.0, -4163.928826323608, -4233.956841702085, -4267.775031062964, -4295.513545932001, -187500.02235174447, -183425.50050324207, 3344.8044472699703, -184308.99790632701, 0.008, 0.048, 0.852, 192.0, 0.0, 0.0, 0.0, 0.0, 0.0, 0.0, 0.0, 0.0, 0.0, 1.738881409318008E9, 0.0, 2025-02-06 17:36:49.318
23.0, -4165.404041457658, -4235.588519047323, -4269.429060152657, -4297.256981999514, -187500.02235174447, -183427.02042186505, 3346.7490490375817, -184310.38371448324, 0.008, 0.048, 0.852, 192.0, 0.0, 0.0, 0.0, 0.0, 0.0, 0.0, 0.0, 0.0, 0.0, 1.738881409323049E9, 0.0, 2025-02-06 17:36:49.323
24.0, -4165.560503668846, -4235.812036491876, -4269.630225852755, -4297.547554677433, -187500.02235174447, -183426.90866314276, 3347.196083926688, -184310.1601970387, 0.008, 0.048, 0.852, 192.0, 0.0, 0.0, 0.0, 0.0, 0.0, 0.0, 0.0, 0.0, 0.0, 1.738881409326043E9, 0.0, 2025-02-06 17:36:49.326
25.0, -4165.024061801918, -4235.342649858314, -4269.183190963649, -4297.078168043872, -187500.02235174447, -183425.99224162012, 3346.7490490375817, -184309.13201679374, 0.008, 0.048, 0.852, 192.0, 0.0, 0.0, 0.0, 0.0, 0.0, 0.0, 0.0, 0.0, 0.0, 1.738881409329067E9, 0.0, 2025-02-06 17:36:49.329
26.0, -4164.82289610182, -4235.119132413761, -4268.982025263551, -4296.787595365953, -187500.02235174447, -183425.38874451982, 3346.4584763596627, -184308.32735399334, 0.008, 0.048, 0.852, 192.0, 0.0, 0.0, 0.0, 0.0, 0.0, 0.0, 0.0, 0.0, 0.0, 1.738881409334158E9, 0.0, 2025-02-06 17:36:49.334
27.0, -4166.745146124977, -4237.153141159194, -4270.904275286707, -4298.866307600297, -187500.02235174447, -183427.37804977634, 3348.7607060385594, -184310.2496040165, 0.01, 0.05, 0.922, 192.0, 0.0, 80.0, 1.0, 144.0, 28.0, 208.0, 0.0, 0.0, 0.0, 1.738881409338163E9, 0.0, 2025-02-06 17:36:49.338
28.0, -4167.125125780717, -4237.443713837113, -4271.284254942448, -4299.156880278216, -187500.02235174447, -183427.48980849862, 3349.095982205389, -184310.1601970387, 0.01, 0.05, 0.922, 192.0, 0.0, 0.0, 0.0, 0.0, 0.0, 0.0, 0.0, 0.0, 0.0, 1.738881409342168E9, 0.0, 2025-02-06 17:36:49.342
29.0, -4166.566332169335, -4236.773161503454, -4270.680757842155, -4298.508679689012, -187500.02235174447, -183426.30516604247, 3348.3807263828194, -184308.81909237136, 0.01, 0.05, 0.922, 192.0, 0.0, 0.0, 0.0, 0.0, 0.0, 0.0, 0.0, 0.0, 0.0, 1.738881409346167E9, 0.0, 2025-02-06 17:36:49.346
30.0, -4166.29811123587, -4236.527292314446, -4270.434888653146, -4298.307513988914, -187500.02235174447, -183425.58991021992, 3348.134857193811, -184308.0591330599, 0.01, 0.05, 0.922, 192.0, 0.0, 0.0, 0.0, 0.0, 0.0, 0.0, 0.0, 0.0, 0.0, 1.738881409350172E9, 0.0, 2025-02-06 17:36:49.350
31.0, -4165.381689713203, -4235.588519047323, -4269.6078741083, -4297.368740721791, -187500.02235174447, -183424.15939857476, 3346.972566482135, -184306.49451094802, 0.01, 0.05, 0.922, 192.0, 0.0, 0.0, 0.0, 0.0, 0.0, 0.0, 0.0, 0.0, 0.0, 1.738881409354226E9, 0.0, 2025-02-06 17:36:49.354
32.0, -4165.828724602309, -4236.035553936428, -4270.010205508495, -4297.860479099808, -187500.02235174447, -183424.33821253042, 3347.6654705602496, -184306.49451094802, 0.01, 0.05, 0.922, 192.0, 0.0, 0.0, 0.0, 0.0, 0.0, 0.0, 0.0, 0.0, 0.0, 1.738881409357195E9, 0.0, 2025-02-06 17:36:49.357
33.0, -4166.342814724781, -4236.639051036722, -4270.568999119878, -4298.463976200102, -187500.02235174447, -183424.65113695277, 3348.4254298717296, -184306.6509731592, 0.01, 0.05, 0.922, 192.0, 0.0, 0.0, 0.0, 0.0, 0.0, 0.0, 0.0, 0.0, 0.0, 1.738881409362227E9, 0.0, 2025-02-06 17:36:49.362
34.0, -4166.119297280228, -4236.393181847713, -4270.345481675325, -4298.240458755548, -187500.02235174447, -183424.15939857476, 3348.224264171632, -184305.89101384772, 0.01, 0.05, 0.922, 192.0, 0.0, 0.0, 0.0, 0.0, 0.0, 0.0, 0.0, 0.0, 0.0, 1.738881409366232E9, 0.0, 2025-02-06 17:36:49.366
35.0, -4167.795678114376, -4238.203673148593, -4272.066565998383, -4299.894487845241, -187500.02235174447, -183425.83577940892, 3350.191217683699, -184307.4556359596, 0.01, 0.05, 0.922, 192.0, 0.0, 0.0, 0.0, 0.0, 0.0, 0.0, 0.0, 0.0, 0.0, 1.738881409370249E9, 0.0, 2025-02-06 17:36:49.370
36.0, -4168.309768236848, -4238.918928971163, -4272.714766587587, -4300.5650401789, -187500.02235174447, -183426.26046255356, 3350.906473506269, -184307.76856038196, 0.01, 0.05, 0.922, 192.0, 0.0, 0.0, 0.0, 0.0, 0.0, 0.0, 0.0, 0.0, 0.0, 1.738881409374269E9, 0.0, 2025-02-06 17:36:49.374
37.0, -4168.06389904784, -4238.6507080377, -4272.491249143034, -4300.296819245436, -187500.02235174447, -183425.61226196436, 3350.6606043172605, -184306.94154583712, 0.01, 0.048, 0.9520000000000001, 192.0, 0.0, 80.0, 1.0, 128.0, 29.0, 192.0, 0.0, 0.0, 0.0, 1.738881409378289E9, 0.0, 2025-02-06 17:36:49.378
38.0, -4168.130954281206, -4238.717763271065, -4272.580656120856, -4300.274467500981, -187500.02235174447, -183425.299337542, 3350.7276595506264, -184306.49451094802, 0.01, 0.048, 0.9520000000000001, 192.0, 0.0, 0.0, 0.0, 0.0, 0.0, 0.0, 0.0, 0.0, 0.0, 1.738881409381287E9, 0.0, 2025-02-06 17:36:49.381
39.0, -4169.9190938376305, -4240.595309805311, -4274.301740443914, -4302.353179735324, -187500.02235174447, -183427.15453233177, 3353.0075374850676, -184308.2155952711, 0.01, 0.048, 0.9520000000000001, 192.0, 0.0, 0.0, 0.0, 0.0, 0.0, 0.0, 0.0, 0.0, 0.0, 1.738881409385325E9, 0.0, 2025-02-06 17:36:49.385
40.0, -4169.516762437434, -4240.148274916205, -4273.854705554808, -4301.906144846219, -187500.02235174447, -183426.1934073202, 3352.5605025959617, -184307.2544702595, 0.01, 0.048, 0.9520000000000001, 192.0, 0.0, 0.0, 0.0, 0.0, 0.0, 0.0, 0.0, 0.0, 0.0, 1.738881409389359E9, 0.0, 2025-02-06 17:36:49.389
41.0, -4168.756803125954, -4239.321260371359, -4273.005339265506, -4300.94501983464, -187500.02235174447, -183424.60643346386, 3351.4429153731962, -184305.68984814762, 0.01, 0.048, 0.9520000000000001, 192.0, 0.0, 0.0, 0.0, 0.0, 0.0, 0.0, 0.0, 0.0, 0.0, 1.738881409394359E9, 0.0, 2025-02-06 17:36:49.394
42.0, -4169.069727548329, -4239.567129560367, -4273.295911943425, -4301.235592512559, -187500.02235174447, -183424.65113695277, 3351.845246773392, -184305.6004411698, 0.01, 0.048, 0.9520000000000001, 192.0, 0.0, 0.0, 0.0, 0.0, 0.0, 0.0, 0.0, 0.0, 0.0, 1.738881409398388E9, 0.0, 2025-02-06 17:36:49.398
43.0, -4169.740279881988, -4240.371792360758, -4274.1676299771825, -4301.9955518240395, -187500.02235174447, -183425.27698579754, 3352.828723529425, -184306.13688303673, 0.01, 0.048, 0.9520000000000001, 192.0, 0.0, 0.0, 0.0, 0.0, 0.0, 0.0, 0.0, 0.0, 0.0, 1.738881409402395E9, 0.0, 2025-02-06 17:36:49.402
44.0, -4168.734451381499, -4239.388315604725, -4273.27356019897, -4301.012075068006, -187500.02235174447, -183423.6453084523, 3351.4652671176514, -184304.3040399914, 0.01, 0.048, 0.9520000000000001, 192.0, 0.0, 0.0, 0.0, 0.0, 0.0, 0.0, 0.0, 0.0, 0.0, 1.738881409406426E9, 0.0, 2025-02-06 17:36:49.406
45.0, -4168.510933936946, -4239.209501649082, -4273.005339265506, -4300.743854134543, -187500.02235174447, -183423.08651484092, 3351.152342695277, -184303.3652667243, 0.01, 0.048, 0.9520000000000001, 192.0, 0.0, 0.0, 0.0, 0.0, 0.0, 0.0, 0.0, 0.0, 0.0, 1.73888140940943E9, 0.0, 2025-02-06 17:36:49.409
46.0, -4167.795678114376, -4238.449542337602, -4272.2900834429365, -4300.028598311973, -187500.02235174447, -183421.63365145132, 3350.1465141947883, -184301.97945856804, 0.01, 0.048, 0.9520000000000001, 192.0, 0.0, 0.0, 0.0, 0.0, 0.0, 0.0, 0.0, 0.0, 0.0, 1.738881409413461E9, 0.0, 2025-02-06 17:36:49.413
47.0, -4167.303939736359, -4238.047210937406, -4271.865400298286, -4299.581563422867, -187500.02235174447, -183420.8960438843, 3349.833589772414, -184300.995981812, 0.01, 0.048, 0.9520000000000001, 192.0, 0.0, 0.0, 0.0, 0.0, 0.0, 0.0, 0.0, 0.0, 0.0, 1.738881409417495E9, 0.0, 2025-02-06 17:36:49.417
48.0, -4166.834553102798, -4237.6001760483, -4271.507772387001, -4299.179232022671, -187500.02235174447, -183420.11373282835, 3349.453610116674, -184299.9454498226, 0.004, 0.05, 0.97, 192.0, 0.0, 32.0, 1.0, 144.0, 30.0, 80.0, 0.0, 0.0, 0.0, 1.738881409422515E9, 0.0, 2025-02-06 17:36:49.422
49.0, -4167.192181014083, -4237.93545221513, -4271.8206968093755, -4299.603915167322, -187500.02235174447, -183420.18078806173, 3349.9453484946907, -184299.87839458924, 0.004, 0.05, 0.97, 192.0, 0.0, 0.0, 0.0, 0.0, 0.0, 0.0, 0.0, 0.0, 0.0, 1.738881409426518E9, 0.0, 2025-02-06 17:36:49.426
50.0, -4165.895779835675, -4236.527292314446, -4270.345481675325, -4298.0616447999055, -187500.02235174447, -183418.03502059402, 3348.224264171632, -184297.66557188818, 0.004, 0.05, 0.97, 192.0, 0.0, 0.0, 0.0, 0.0, 0.0, 0.0, 0.0, 0.0, 0.0, 1.738881409430527E9, 0.0, 2025-02-06 17:36:49.430
51.0, -4166.409869958147, -4236.929623714641, -4270.70310958661, -4298.508679689012, -187500.02235174447, -183418.12442757183, 3348.7160025496487, -184297.66557188818, 0.004, 0.05, 0.97, 192.0, 0.0, 0.0, 0.0, 0.0, 0.0, 0.0, 0.0, 0.0, 0.0, 1.738881409434552E9, 0.0, 2025-02-06 17:36:49.434
52.0, -4166.454573447058, -4237.041382436917, -4270.658406097699, -4298.486327944556, -187500.02235174447, -183417.85620663836, 3348.581892082917, -184297.3079439769, 0.004, 0.05, 0.97, 192.0, 0.0, 0.0, 0.0, 0.0, 0.0, 0.0, 0.0, 0.0, 0.0, 1.738881409437573E9, 0.0, 2025-02-06 17:36:49.437
53.0, -4166.655739147155, -4237.354306859292, -4271.016034008984, -4298.888659344752, -187500.02235174447, -183417.85620663836, 3348.9171682497467, -184297.1067782768, 0.004, 0.05, 0.97, 192.0, 0.0, 0.0, 0.0, 0.0, 0.0, 0.0, 0.0, 0.0, 0.0, 1.73888140944158E9, 0.0, 2025-02-06 17:36:49.441
54.0, -4167.6839193921, -4238.516597570968, -4272.155972976205, -4299.9391913341515, -187500.02235174447, -183418.8396833944, 3350.2806246615205, -184297.9114410772, 0.004, 0.05, 0.97, 192.0, 0.0, 0.0, 0.0, 0.0, 0.0, 0.0, 0.0, 0.0, 0.0, 1.738881409445618E9, 0.0, 2025-02-06 17:36:49.445
55.0, -4167.281587991904, -4238.114266170772, -4271.641882853733, -4299.402749467225, -187500.02235174447, -183417.9903171051, 3349.811238027959, -184296.9056125767, 0.004, 0.05, 0.97, 192.0, 0.0, 0.0, 0.0, 0.0, 0.0, 0.0, 0.0, 0.0, 0.0, 1.738881409449632E9, 0.0, 2025-02-06 17:36:49.449
56.0, -4167.415698458636, -4238.248376637504, -4271.731289831554, -4299.738025634054, -187500.02235174447, -183417.7444479161, 3350.0347554725117, -184296.63739164322, 0.004, 0.05, 0.97, 192.0, 0.0, 0.0, 0.0, 0.0, 0.0, 0.0, 0.0, 0.0, 0.0, 1.738881409454632E9, 0.0, 2025-02-06 17:36:49.454
57.0, -4168.0415473033845, -4238.807170248887, -4272.223028209571, -4300.252115756526, -187500.02235174447, -183418.05737233846, 3350.7276595506264, -184296.77150210997, 0.004, 0.05, 0.97, 192.0, 0.0, 0.0, 0.0, 0.0, 0.0, 0.0, 0.0, 0.0, 0.0, 1.738881409458669E9, 0.0, 2025-02-06 17:36:49.458
58.0, -4168.019195558929, -4238.918928971163, -4272.245379954026, -4300.2297640120705, -187500.02235174447, -183417.67739268273, 3350.772363039537, -184296.16800500968, 0.002, 0.052000000000000005, 0.98, 192.0, 0.0, 16.0, 1.0, 160.0, 30.0, 160.0, 0.0, 0.0, 0.0, 1.738881409462681E9, 0.0, 2025-02-06 17:36:49.462
59.0, -4167.907436836653, -4238.807170248887, -4272.1112694872945, -4300.073301800883, -187500.02235174447, -183417.00684034906, 3350.571197339439, -184295.51980442047, 0.002, 0.052000000000000005, 0.98, 192.0, 0.0, 0.0, 0.0, 0.0, 0.0, 0.0, 0.0, 0.0, 0.0, 1.738881409465738E9, 0.0, 2025-02-06 17:36:49.465
60.0, -4168.466230448035, -4239.321260371359, -4272.603007865311, -4300.721502390087, -187500.02235174447, -183417.3421165159, 3351.062935717456, -184295.6539148872, 0.002, 0.052000000000000005, 0.98, 192.0, 0.0, 0.0, 0.0, 0.0, 0.0, 0.0, 0.0, 0.0, 0.0, 1.738881409469725E9, 0.0, 2025-02-06 17:36:49.469
61.0, -4169.360300226248, -4240.282385382937, -4273.720595088076, -4301.794386123942, -187500.02235174447, -183418.23618629412, 3352.2475781735875, -184296.32446722084, 0.002, 0.052000000000000005, 0.98, 192.0, 0.0, 0.0, 0.0, 0.0, 0.0, 0.0, 0.0, 0.0, 0.0, 1.738881409473738E9, 0.0, 2025-02-06 17:36:49.473
62.0, -4169.136782781695, -4240.058867938384, -4273.497077643523, -4301.526165190478, -187500.02235174447, -183417.47622698263, 3351.9793572401236, -184295.47510093154, 0.002, 0.052000000000000005, 0.98, 192.0, 0.0, 0.0, 0.0, 0.0, 0.0, 0.0, 0.0, 0.0, 0.0, 1.738881409477755E9, 0.0, 2025-02-06 17:36:49.477
63.0, -4169.695576393077, -4240.684716783133, -4274.145278232727, -4302.219069268593, -187500.02235174447, -183418.03502059402, 3352.9404822517017, -184295.8550805873, 0.002, 0.052000000000000005, 0.98, 192.0, 0.0, 0.0, 0.0, 0.0, 0.0, 0.0, 0.0, 0.0, 0.0, 1.738881409481797E9, 0.0, 2025-02-06 17:36:49.481
64.0, -4169.896742093175, -4241.019992949962, -4274.525257888467, -4302.599048924333, -187500.02235174447, -183418.01266884955, 3353.454572374174, -184295.6539148872, 0.002, 0.052000000000000005, 0.98, 192.0, 0.0, 0.0, 0.0, 0.0, 0.0, 0.0, 0.0, 0.0, 0.0, 1.738881409486794E9, 0.0, 2025-02-06 17:36:49.486
65.0, -4168.06389904784, -4238.985984204529, -4272.51360088749, -4300.609743667811, -187500.02235174447, -183415.10694207036, 3350.9958804840903, -184292.7034846191, 0.002, 0.052000000000000005, 0.98, 192.0, 0.0, 0.0, 0.0, 0.0, 0.0, 0.0, 0.0, 0.0, 0.0, 1.738881409489808E9, 0.0, 2025-02-06 17:36:49.489
66.0, -4169.226189759515, -4240.1259231717495, -4273.787650321442, -4301.906144846219, -187500.02235174447, -183416.33628801542, 3352.448743873685, -184293.7987200974, 0.002, 0.052000000000000005, 0.98, 192.0, 0.0, 0.0, 0.0, 0.0, 0.0, 0.0, 0.0, 0.0, 0.0, 1.738881409492839E9, 0.0, 2025-02-06 17:36:49.492
67.0, -4169.405003715158, -4240.282385382937, -4273.98881602154, -4302.1073105463165, -187500.02235174447, -183416.26923278204, 3352.6722613182383, -184293.6422578862, 0.002, 0.052000000000000005, 0.98, 192.0, 0.0, 0.0, 0.0, 0.0, 0.0, 0.0, 0.0, 0.0, 0.0, 1.738881409497846E9, 0.0, 2025-02-06 17:36:49.497
68.0, -4169.9190938376305, -4240.908234227685, -4274.525257888467, -4302.599048924333, -187500.02235174447, -183416.4480467377, 3353.163999696255, -184293.66460963068, 0.002, 0.056, 0.98, 192.0, 0.0, 16.0, 1.0, 192.0, 30.0, 160.0, 0.0, 0.0, 0.0, 1.738881409501863E9, 0.0, 2025-02-06 17:36:49.501
69.0, -4169.337948481792, -4240.349440616303, -4273.8770572992635, -4301.973200079585, -187500.02235174447, -183415.41986649274, 3352.359336895864, -184292.3905601967, 0.002, 0.056, 0.98, 192.0, 0.0, 0.0, 0.0, 0.0, 0.0, 0.0, 0.0, 0.0, 0.0, 1.738881409505877E9, 0.0, 2025-02-06 17:36:49.505
70.0, -4167.773326369921, -4238.673059782155, -4272.357138676302, -4300.386226223258, -187500.02235174447, -183413.18469204722, 3350.459438617163, -184289.99892354, 0.002, 0.056, 0.98, 192.0, 0.0, 0.0, 0.0, 0.0, 0.0, 0.0, 0.0, 0.0, 0.0, 1.738881409509904E9, 0.0, 2025-02-06 17:36:49.509
71.0, -4167.01336705844, -4237.868396981764, -4271.552475875911, -4299.626266911777, -187500.02235174447, -183411.91064261325, 3349.543017094495, -184288.5907636393, 0.002, 0.056, 0.98, 192.0, 0.0, 0.0, 0.0, 0.0, 0.0, 0.0, 0.0, 0.0, 0.0, 1.738881409513927E9, 0.0, 2025-02-06 17:36:49.513
72.0, -4167.482753692002, -4238.382487104236, -4271.954807276107, -4300.118005289794, -187500.02235174447, -183412.2459187801, 3350.325328150431, -184288.7919293394, 0.002, 0.056, 0.98, 192.0, 0.0, 0.0, 0.0, 0.0, 0.0, 0.0, 0.0, 0.0, 0.0, 1.738881409517933E9, 0.0, 2025-02-06 17:36:49.517
73.0, -4167.34864322527, -4238.158969659683, -4271.686586342644, -4299.827432611875, -187500.02235174447, -183411.62006993534, 3350.124162450333, -184288.0543217724, 0.002, 0.056, 0.98, 192.0, 0.0, 0.0, 0.0, 0.0, 0.0, 0.0, 0.0, 0.0, 0.0, 1.738881409520976E9, 0.0, 2025-02-06 17:36:49.520
74.0, -4167.482753692002, -4238.270728381959, -4271.775993320464, -4299.961543078607, -187500.02235174447, -183411.46360772414, 3350.3700316393415, -184287.6519903722, 0.002, 0.056, 0.98, 192.0, 0.0, 0.0, 0.0, 0.0, 0.0, 0.0, 0.0, 0.0, 0.0, 1.738881409525972E9, 0.0, 2025-02-06 17:36:49.525
75.0, -4168.935617081597, -4239.880053982742, -4273.407670665702, -4301.6155721683, -187500.02235174447, -183413.02822983603, 3352.1805229402216, -184288.9930950395, 0.002, 0.056, 0.98, 192.0, 0.0, 0.0, 0.0, 0.0, 0.0, 0.0, 0.0, 0.0, 0.0, 1.738881409529981E9, 0.0, 2025-02-06 17:36:49.529
76.0, -4167.34864322527, -4238.248376637504, -4271.865400298286, -4299.782729122964, -187500.02235174447, -183410.52483445703, 3349.9453484946907, -184286.46734791607, 0.002, 0.056, 0.98, 192.0, 0.0, 0.0, 0.0, 0.0, 0.0, 0.0, 0.0, 0.0, 0.0, 1.73888140953401E9, 0.0, 2025-02-06 17:36:49.534
77.0, -4167.34864322527, -4238.203673148593, -4271.9995107650175, -4299.894487845241, -187500.02235174447, -183410.23426177911, 3350.0124037280566, -184285.97560953806, 0.002, 0.056, 0.98, 192.0, 0.0, 0.0, 0.0, 0.0, 0.0, 0.0, 0.0, 0.0, 0.0, 1.738881409538014E9, 0.0, 2025-02-06 17:36:49.538
78.0, -4166.052242046862, -4236.884920225731, -4270.792516564431, -4298.665141900199, -187500.02235174447, -183408.37906698932, 3348.581892082917, -184284.03100777042, 0.002, 0.056, 0.982, 192.0, 0.0, 16.0, 1.0, 192.0, 30.0, 176.0, 0.0, 0.0, 0.0, 1.738881409542043E9, 0.0, 2025-02-06 17:36:49.542
79.0, -4166.409869958147, -4237.242548137016, -4271.105440986806, -4299.0004180670285, -187500.02235174447, -183408.4908257116, 3349.0512787164785, -184283.96395253707, 0.002, 0.056, 0.982, 192.0, 0.0, 0.0, 0.0, 0.0, 0.0, 0.0, 0.0, 0.0, 0.0, 1.738881409546062E9, 0.0, 2025-02-06 17:36:49.546
80.0, -4165.940483324585, -4236.706106270088, -4270.613702608789, -4298.463976200102, -187500.02235174447, -183407.4402937222, 3348.559540338462, -184282.8910688032, 0.002, 0.056, 0.982, 192.0, 0.0, 0.0, 0.0, 0.0, 0.0, 0.0, 0.0, 0.0, 0.0, 1.738881409549064E9, 0.0, 2025-02-06 17:36:49.549
81.0, -4165.53815192439, -4236.393181847713, -4270.2337229530485, -4298.151051777727, -187500.02235174447, -183406.52387219953, 3348.0230984715345, -184281.8405368138, 0.002, 0.056, 0.982, 192.0, 0.0, 0.0, 0.0, 0.0, 0.0, 0.0, 0.0, 0.0, 0.0, 1.738881409553174E9, 0.0, 2025-02-06 17:36:49.553
82.0, -4165.448744946569, -4236.303774869893, -4270.211371208593, -4298.0616447999055, -187500.02235174447, -183406.0991890549, 3347.911339749258, -184281.2370397135, 0.002, 0.056, 0.982, 192.0, 0.0, 0.0, 0.0, 0.0, 0.0, 0.0, 0.0, 0.0, 0.0, 1.738881409558146E9, 0.0, 2025-02-06 17:36:49.558
83.0, -4165.336986224293, -4236.259071380981, -4270.099612486317, -4297.860479099808, -187500.02235174447, -183405.5403954435, 3347.8219327714364, -184280.56648737987, 0.002, 0.056, 0.982, 192.0, 0.0, 0.0, 0.0, 0.0, 0.0, 0.0, 0.0, 0.0, 0.0, 1.738881409562174E9, 0.0, 2025-02-06 17:36:49.562
84.0, -4165.761669368943, -4236.482588825535, -4270.4125369086905, -4298.1734035221825, -187500.02235174447, -183405.5403954435, 3348.1795606827213, -184280.45472865758, 0.002, 0.056, 0.982, 192.0, 0.0, 0.0, 0.0, 0.0, 0.0, 0.0, 0.0, 0.0, 0.0, 1.738881409566153E9, 0.0, 2025-02-06 17:36:49.566
85.0, -4165.828724602309, -4236.594347547812, -4270.501943886512, -4298.285162244459, -187500.02235174447, -183405.36158148784, 3348.3136711494535, -184280.03004551295, 0.002, 0.056, 0.982, 192.0, 0.0, 0.0, 0.0, 0.0, 0.0, 0.0, 0.0, 0.0, 0.0, 1.738881409570199E9, 0.0, 2025-02-06 17:36:49.570
86.0, -4165.135820524195, -4235.879091725242, -4269.876095041764, -4297.502851188523, -187500.02235174447, -183404.1322355428, 3347.4643048601515, -184278.66658910117, 0.002, 0.056, 0.982, 192.0, 0.0, 0.0, 0.0, 0.0, 0.0, 0.0, 0.0, 0.0, 0.0, 1.738881409573191E9, 0.0, 2025-02-06 17:36:49.573
87.0, -4165.404041457658, -4236.102609169795, -4269.98785376404, -4297.771072121986, -187500.02235174447, -183403.97577333162, 3347.7548775380706, -184278.42071991216, 0.002, 0.056, 0.982, 192.0, 0.0, 0.0, 0.0, 0.0, 0.0, 0.0, 0.0, 0.0, 0.0, 1.738881409577221E9, 0.0, 2025-02-06 17:36:49.577
88.0, -4166.052242046862, -4236.817864992365, -4270.658406097699, -4298.553383177922, -187500.02235174447, -183404.4898634541, 3348.6712990607384, -184278.77834782345, 0.01, 0.062, 0.984, 192.0, 0.0, 80.0, 1.0, 240.0, 30.0, 192.0, 0.0, 0.0, 0.0, 1.738881409581222E9, 0.0, 2025-02-06 17:36:49.581
89.0, -4165.605207157756, -4236.415533592169, -4270.211371208593, -4298.151051777727, -187500.02235174447, -183403.61814542033, 3348.1795606827213, -184277.7501675785, 0.01, 0.062, 0.984, 192.0, 0.0, 0.0, 0.0, 0.0, 0.0, 0.0, 0.0, 0.0, 0.0, 1.738881409585243E9, 0.0, 2025-02-06 17:36:49.585
90.0, -4164.129992023706, -4234.850911480297, -4268.780859563453, -4296.5640779214, -187500.02235174447, -183401.4947296971, 3346.3690693818417, -184275.47028964406, 0.01, 0.062, 0.984, 192.0, 0.0, 0.0, 0.0, 0.0, 0.0, 0.0, 0.0, 0.0, 0.0, 1.738881409590263E9, 0.0, 2025-02-06 17:36:49.590
91.0, -4162.744183867477, -4233.308641112882, -4267.2385891960375, -4294.977104065073, -187500.02235174447, -183399.3489622294, 3344.580929825417, -184273.21276345407, 0.01, 0.062, 0.984, 192.0, 0.0, 0.0, 0.0, 0.0, 0.0, 0.0, 0.0, 0.0, 0.0, 1.738881409594315E9, 0.0, 2025-02-06 17:36:49.594
92.0, -4163.146515267672, -4233.778027746443, -4267.79738280742, -4295.424138954179, -187500.02235174447, -183399.55012792948, 3344.9832612256128, -184273.12335647625, 0.01, 0.062, 0.984, 192.0, 0.0, 0.0, 0.0, 0.0, 0.0, 0.0, 0.0, 0.0, 0.0, 1.738881409598311E9, 0.0, 2025-02-06 17:36:49.598
93.0, -4164.331157723804, -4235.052077180395, -4269.071432241372, -4296.742891877043, -187500.02235174447, -183400.66771515223, 3346.4808281041182, -184274.12918497674, 0.01, 0.062, 0.984, 192.0, 0.0, 0.0, 0.0, 0.0, 0.0, 0.0, 0.0, 0.0, 0.0, 1.738881409601308E9, 0.0, 2025-02-06 17:36:49.601
94.0, -4164.174695512616, -4234.806207991387, -4268.803211307909, -4296.4746709435785, -187500.02235174447, -183399.97481107412, 3346.257310659565, -184273.4362808986, 0.01, 0.062, 0.984, 192.0, 0.0, 0.0, 0.0, 0.0, 0.0, 0.0, 0.0, 0.0, 0.0, 1.73888140960534E9, 0.0, 2025-02-06 17:36:49.605
95.0, -4164.867599590731, -4235.499112069501, -4269.496115386023, -4297.167575021694, -187500.02235174447, -183400.46654945213, 3347.0843252044115, -184273.72685357655, 0.01, 0.062, 0.984, 192.0, 0.0, 0.0, 0.0, 0.0, 0.0, 0.0, 0.0, 0.0, 0.0, 1.738881409609363E9, 0.0, 2025-02-06 17:36:49.609
96.0, -4165.940483324585, -4236.706106270088, -4270.568999119878, -4298.396920966736, -187500.02235174447, -183401.4500262082, 3348.581892082917, -184274.6432750992, 0.01, 0.062, 0.984, 192.0, 0.0, 0.0, 0.0, 0.0, 0.0, 0.0, 0.0, 0.0, 0.0, 1.738881409613381E9, 0.0, 2025-02-06 17:36:49.613
97.0, -4165.739317624488, -4236.482588825535, -4270.501943886512, -4298.218107011093, -187500.02235174447, -183400.8465291079, 3348.492485105096, -184273.81626055436, 0.01, 0.062, 0.984, 192.0, 0.0, 0.0, 0.0, 0.0, 0.0, 0.0, 0.0, 0.0, 0.0, 1.738881409618406E9, 0.0, 2025-02-06 17:36:49.618
98.0, -4166.119297280228, -4236.817864992365, -4270.948978775618, -4298.553383177922, -187500.02235174447, -183400.8912325968, 3348.939519994202, -184273.749205321, 0.006, 0.062, 0.98, 192.0, 0.0, 48.0, 1.0, 240.0, 30.0, 160.0, 0.0, 0.0, 0.0, 1.738881409622413E9, 0.0, 2025-02-06 17:36:49.622
99.0, -4166.566332169335, -4237.26489988147, -4271.485420642545, -4299.067473300394, -187500.02235174447, -183401.2488605081, 3349.587720583406, -184273.92801927665, 0.006, 0.062, 0.98, 192.0, 0.0, 0.0, 0.0, 0.0, 0.0, 0.0, 0.0, 0.0, 0.0, 1.738881409626446E9, 0.0, 2025-02-06 17:36:49.626
100.0, -4162.654776889655, -4233.308641112882, -4267.618568851777, -4295.08886278735, -187500.02235174447, -183396.21971800562, 3344.7597437810596, -184268.76476630746, 0.006, 0.062, 0.98, 192.0, 0.0, 0.0, 0.0, 0.0, 0.0, 0.0, 0.0, 0.0, 0.0, 1.738881409629443E9, 0.0, 2025-02-06 17:36:49.629
101.0, -4161.403079200159, -4231.945184701108, -4266.277464184459, -4293.703054631121, -187500.02235174447, -183394.2304127491, 3343.284528647009, -184266.70840581757, 0.006, 0.062, 0.98, 192.0, 0.0, 0.0, 0.0, 0.0, 0.0, 0.0, 0.0, 0.0, 0.0, 1.738881409633498E9, 0.0, 2025-02-06 17:36:49.633
102.0, -4161.850114089264, -4232.347516101303, -4266.657443840199, -4294.194793009137, -187500.02235174447, -183394.4315784492, 3343.7539152805707, -184266.66370232866, 0.006, 0.062, 0.98, 192.0, 0.0, 0.0, 0.0, 0.0, 0.0, 0.0, 0.0, 0.0, 0.0, 1.738881409637494E9, 0.0, 2025-02-06 17:36:49.637
103.0, -4161.917169322631, -4232.347516101303, -4266.590388606834, -4294.172441264683, -187500.02235174447, -183393.9398400712, 3343.6645083027493, -184266.10490871727, 0.006, 0.062, 0.98, 192.0, 0.0, 0.0, 0.0, 0.0, 0.0, 0.0, 0.0, 0.0, 0.0, 1.738881409641501E9, 0.0, 2025-02-06 17:36:49.641
104.0, -4162.408907700647, -4232.83925447932, -4267.08212698485, -4294.70888313161, -187500.02235174447, -183394.07395053792, 3344.4021158697747, -184266.21666743956, 0.006, 0.062, 0.98, 192.0, 0.0, 0.0, 0.0, 0.0, 0.0, 0.0, 0.0, 0.0, 0.0, 1.738881409645522E9, 0.0, 2025-02-06 17:36:49.645
105.0, -4163.72766062351, -4234.247414380004, -4268.490286885534, -4296.049987798928, -187500.02235174447, -183395.4374069497, 3346.1679036817436, -184267.37895815124, 0.006, 0.062, 0.98, 192.0, 0.0, 0.0, 0.0, 0.0, 0.0, 0.0, 0.0, 0.0, 0.0, 1.738881409649543E9, 0.0, 2025-02-06 17:36:49.649
106.0, -4163.034756545396, -4233.6662690241665, -4267.864438040786, -4295.379435465269, -187500.02235174447, -183394.4315784492, 3345.51970309254, -184266.14961220618, 0.006, 0.062, 0.98, 192.0, 0.0, 0.0, 0.0, 0.0, 0.0, 0.0, 0.0, 0.0, 0.0, 1.738881409654571E9, 0.0, 2025-02-06 17:36:49.654
107.0, -4164.509971679446, -4235.186187647127, -4269.317301430381, -4296.9440575771405, -187500.02235174447, -183395.81738660543, 3347.263139160054, -184267.37895815124, 0.006, 0.062, 0.98, 192.0, 0.0, 0.0, 0.0, 0.0, 0.0, 0.0, 0.0, 0.0, 0.0, 1.738881409657586E9, 0.0, 2025-02-06 17:36:49.657
108.0, -4164.487619934991, -4235.141484158216, -4269.22789445256, -4296.854650599319, -187500.02235174447, -183395.32564822742, 3347.0843252044115, -184266.86486802876, 0.004, 0.056, 0.98, 192.0, 0.0, 32.0, 1.0, 192.0, 30.0, 160.0, 0.0, 0.0, 0.0, 1.738881409661601E9, 0.0, 2025-02-06 17:36:49.661
109.0, -4163.01240480094, -4233.5992137908, -4267.730327574054, -4295.401787209724, -187500.02235174447, -183393.1798807597, 3345.2067786701655, -184264.49558311648, 0.004, 0.056, 0.98, 192.0, 0.0, 0.0, 0.0, 0.0, 0.0, 0.0, 0.0, 0.0, 0.0, 1.73888140966561E9, 0.0, 2025-02-06 17:36:49.665
110.0, -4163.772364112421, -4234.403876591191, -4268.579693863356, -4296.251153499026, -187500.02235174447, -183393.87278483782, 3346.257310659565, -184265.00967323896, 0.004, 0.056, 0.98, 192.0, 0.0, 0.0, 0.0, 0.0, 0.0, 0.0, 0.0, 0.0, 0.0, 1.73888140966965E9, 0.0, 2025-02-06 17:36:49.669
111.0, -4165.515800179935, -4236.080257425339, -4270.32312993087, -4297.927534333174, -187500.02235174447, -183395.4821104386, 3348.3136711494535, -184266.48488837303, 0.004, 0.056, 0.98, 192.0, 0.0, 0.0, 0.0, 0.0, 0.0, 0.0, 0.0, 0.0, 0.0, 1.738881409673672E9, 0.0, 2025-02-06 17:36:49.673
112.0, -4165.068765290829, -4235.566167302867, -4269.920798530674, -4297.502851188523, -187500.02235174447, -183394.5880406604, 3347.866636260347, -184265.47905987254, 0.004, 0.056, 0.98, 192.0, 0.0, 0.0, 0.0, 0.0, 0.0, 0.0, 0.0, 0.0, 0.0, 1.738881409677683E9, 0.0, 2025-02-06 17:36:49.677
113.0, -4164.2864542348925, -4234.672097524654, -4269.071432241372, -4296.675836643677, -187500.02235174447, -183393.20223250418, 3346.972566482135, -184264.00384473847, 0.004, 0.056, 0.98, 192.0, 0.0, 0.0, 0.0, 0.0, 0.0, 0.0, 0.0, 0.0, 0.0, 1.738881409682722E9, 0.0, 2025-02-06 17:36:49.682
114.0, -4163.8170676013315, -4234.269766124459, -4268.602045607811, -4296.2958569879365, -187500.02235174447, -183392.2858109815, 3346.4808281041182, -184262.97566449354, 0.004, 0.056, 0.98, 192.0, 0.0, 0.0, 0.0, 0.0, 0.0, 0.0, 0.0, 0.0, 0.0, 1.738881409685729E9, 0.0, 2025-02-06 17:36:49.685
115.0, -4165.404041457658, -4235.834388236331, -4270.2337229530485, -4297.972237822084, -187500.02235174447, -183393.76102611556, 3348.358374638364, -184264.36147264976, 0.004, 0.056, 0.98, 192.0, 0.0, 0.0, 0.0, 0.0, 0.0, 0.0, 0.0, 0.0, 0.0, 1.738881409689745E9, 0.0, 2025-02-06 17:36:49.689
116.0, -4166.678090891611, -4237.153141159194, -4271.485420642545, -4299.223935511582, -187500.02235174447, -183394.96802031613, 3349.7218310501376, -184265.45670812807, 0.004, 0.056, 0.98, 192.0, 0.0, 0.0, 0.0, 0.0, 0.0, 0.0, 0.0, 0.0, 0.0, 1.738881409693755E9, 0.0, 2025-02-06 17:36:49.693
117.0, -4167.795678114376, -4238.404838848691, -4272.5583043764, -4300.497984945534, -187500.02235174447, -183396.04090405, 3351.129990950822, -184266.41783313965, 0.004, 0.056, 0.98, 192.0, 0.0, 0.0, 0.0, 0.0, 0.0, 0.0, 0.0, 0.0, 0.0, 1.738881409697791E9, 0.0, 2025-02-06 17:36:49.697
118.0, -4167.5721606698235, -4238.3601353597805, -4272.424193909668, -4300.430929712168, -187500.02235174447, -183395.41505520526, 3350.928825250724, -184265.63552208373, 0.004, 0.056, 0.98, 192.0, 0.0, 0.0, 0.0, 0.0, 0.0, 0.0, 0.0, 0.0, 0.0, 1.738881409701811E9, 0.0, 2025-02-06 17:36:49.701
119.0, -4165.851076346765, -4236.616699292266, -4270.8819235422525, -4298.8216041113865, -187500.02235174447, -183392.95636331517, 3348.939519994202, -184263.06507147136, 0.006, 0.054, 0.98, 192.0, 0.0, 48.0, 1.0, 176.0, 30.0, 160.0, 0.0, 0.0, 0.0, 1.738881409705831E9, 0.0, 2025-02-06 17:36:49.705
120.0, -4165.314634479837, -4236.035553936428, -4270.32312993087, -4298.151051777727, -187500.02235174447, -183391.86112783686, 3348.291319404998, -184261.7910220374, 0.006, 0.054, 0.98, 192.0, 0.0, 0.0, 0.0, 0.0, 0.0, 0.0, 0.0, 0.0, 0.0, 1.738881409710849E9, 0.0, 2025-02-06 17:36:49.710
121.0, -4166.320462980326, -4237.153141159194, -4271.239551453537, -4299.156880278216, -187500.02235174447, -183392.75519761507, 3349.4759618611292, -184262.52862960444, 0.006, 0.054, 0.98, 192.0, 0.0, 0.0, 0.0, 0.0, 0.0, 0.0, 0.0, 0.0, 0.0, 1.738881409713861E9, 0.0, 2025-02-06 17:36:49.713
122.0, -4166.29811123587, -4237.041382436917, -4271.12779273126, -4299.0004180670285, -187500.02235174447, -183392.30816272597, 3349.3642031388526, -184261.92513250414, 0.006, 0.054, 0.98, 192.0, 0.0, 0.0, 0.0, 0.0, 0.0, 0.0, 0.0, 0.0, 0.0, 1.738881409716877E9, 0.0, 2025-02-06 17:36:49.716
123.0, -4165.560503668846, -4236.236719636527, -4270.4125369086905, -4298.218107011093, -187500.02235174447, -183390.94470631419, 3348.4030781272745, -184260.56167609236, 0.006, 0.054, 0.98, 192.0, 0.0, 0.0, 0.0, 0.0, 0.0, 0.0, 0.0, 0.0, 0.0, 1.738881409720914E9, 0.0, 2025-02-06 17:36:49.720
124.0, -4165.5828554133, -4236.326126614347, -4270.434888653146, -4298.262810500003, -187500.02235174447, -183390.6764853807, 3348.4254298717296, -184260.18169643663, 0.006, 0.054, 0.98, 192.0, 0.0, 0.0, 0.0, 0.0, 0.0, 0.0, 0.0, 0.0, 0.0, 1.738881409725916E9, 0.0, 2025-02-06 17:36:49.725
125.0, -4165.15817226865, -4235.923795214152, -4269.965502019585, -4297.815775610898, -187500.02235174447, -183389.8271190914, 3347.8889880048023, -184259.01940572495, 0.006, 0.054, 0.98, 192.0, 0.0, 0.0, 0.0, 0.0, 0.0, 0.0, 0.0, 0.0, 0.0, 1.73888140972993E9, 0.0, 2025-02-06 17:36:49.729
126.0, -4165.5828554133, -4236.259071380981, -4270.390185164236, -4298.262810500003, -187500.02235174447, -183389.89417432479, 3348.3807263828194, -184258.88529525822, 0.006, 0.054, 0.98, 192.0, 0.0, 0.0, 0.0, 0.0, 0.0, 0.0, 0.0, 0.0, 0.0, 1.738881409733975E9, 0.0, 2025-02-06 17:36:49.733
127.0, -4165.2252275020155, -4235.812036491876, -4269.98785376404, -4297.838127355352, -187500.02235174447, -183389.00010454658, 3347.866636260347, -184257.92417024664, 0.006, 0.054, 0.98, 192.0, 0.0, 0.0, 0.0, 0.0, 0.0, 0.0, 0.0, 0.0, 0.0, 1.738881409737069E9, 0.0, 2025-02-06 17:36:49.737
128.0, -4164.77819261291, -4235.342649858314, -4269.585522363845, -4297.4134442107015, -187500.02235174447, -183388.0836830239, 3347.486656604607, -184256.91834174615, 0.006, 0.054, 0.98, 192.0, 0.0, 0.0, 0.0, 0.0, 0.0, 0.0, 0.0, 0.0, 0.0, 1.738881409740981E9, 0.0, 2025-02-06 17:36:49.740
129.0, -4165.784021113399, -4236.393181847713, -4270.568999119878, -4298.463976200102, -187500.02235174447, -183388.95540105767, 3348.8277612719253, -184257.70065280207, 0.01, 0.06, 0.976, 192.0, 0.0, 80.0, 1.0, 224.0, 30.0, 128.0, 0.0, 0.0, 0.0, 1.738881409745012E9, 0.0, 2025-02-06 17:36:49.745
130.0, -4166.25340774696, -4236.974327203551, -4270.993682264529, -4298.955714578118, -187500.02235174447, -183389.2236219911, 3349.4759618611292, -184257.79005977992, 0.01, 0.06, 0.976, 192.0, 0.0, 0.0, 0.0, 0.0, 0.0, 0.0, 0.0, 0.0, 0.0, 1.738881409750037E9, 0.0, 2025-02-06 17:36:49.750
131.0, -4166.678090891611, -4237.466065581568, -4271.597179364822, -4299.447452956135, -187500.02235174447, -183389.44713943568, 3350.0571072169673, -184257.87946675773, 0.01, 0.06, 0.976, 192.0, 0.0, 0.0, 0.0, 0.0, 0.0, 0.0, 0.0, 0.0, 0.0, 1.738881409754054E9, 0.0, 2025-02-06 17:36:49.754
132.0, -4165.716965880032, -4236.437885336624, -4270.636054353244, -4298.441624455646, -187500.02235174447, -183387.8378138349, 3348.7383542941043, -184256.20308592357, 0.01, 0.06, 0.976, 192.0, 0.0, 0.0, 0.0, 0.0, 0.0, 0.0, 0.0, 0.0, 0.0, 1.738881409758071E9, 0.0, 2025-02-06 17:36:49.758
133.0, -4166.6333874027005, -4237.354306859292, -4271.463068898091, -4299.335694233858, -187500.02235174447, -183388.4860144241, 3349.6994793056824, -184256.67247255714, 0.01, 0.06, 0.976, 192.0, 0.0, 0.0, 0.0, 0.0, 0.0, 0.0, 0.0, 0.0, 0.0, 1.738881409762145E9, 0.0, 2025-02-06 17:36:49.762
134.0, -4167.035718802896, -4237.868396981764, -4271.84304855383, -4299.827432611875, -187500.02235174447, -183388.75423535757, 3350.23592117261, -184256.76187953496, 0.01, 0.06, 0.976, 192.0, 0.0, 0.0, 0.0, 0.0, 0.0, 0.0, 0.0, 0.0, 0.0, 1.738881409765168E9, 0.0, 2025-02-06 17:36:49.765
135.0, -4166.722794380521, -4237.466065581568, -4271.396013664725, -4299.358045978313, -187500.02235174447, -183387.9272208127, 3349.7218310501376, -184255.80075452337, 0.01, 0.06, 0.976, 192.0, 0.0, 0.0, 0.0, 0.0, 0.0, 0.0, 0.0, 0.0, 0.0, 1.738881409769152E9, 0.0, 2025-02-06 17:36:49.769
136.0, -4167.840381603287, -4238.69541152661, -4272.625359609766, -4300.5650401789, -187500.02235174447, -183388.91069756876, 3351.3758601398304, -184256.67247255714, 0.01, 0.06, 0.976, 192.0, 0.0, 0.0, 0.0, 0.0, 0.0, 0.0, 0.0, 0.0, 0.0, 1.738881409773145E9, 0.0, 2025-02-06 17:36:49.773
137.0, -4166.611035658245, -4237.354306859292, -4271.396013664725, -4299.380397722769, -187500.02235174447, -183387.0331510345, 3349.878293261325, -184254.72787078953, 0.01, 0.06, 0.976, 192.0, 0.0, 0.0, 0.0, 0.0, 0.0, 0.0, 0.0, 0.0, 0.0, 1.738881409777161E9, 0.0, 2025-02-06 17:36:49.777
138.0, -4166.678090891611, -4237.443713837113, -4271.418365409179, -4299.492156445045, -187500.02235174447, -183386.76493010105, 3349.9229967502356, -184254.1914289226, 0.01, 0.06, 0.976, 192.0, 0.0, 0.0, 0.0, 0.0, 0.0, 0.0, 0.0, 0.0, 0.0, 1.738881409782178E9, 0.0, 2025-02-06 17:36:49.782
139.0, -4166.1640007691385, -4236.929623714641, -4270.837220053341, -4298.888659344752, -187500.02235174447, -183385.71439811165, 3349.252444416576, -184253.00678646646, 0.012, 0.058, 0.98, 192.0, 0.0, 96.0, 1.0, 208.0, 30.0, 160.0, 0.0, 0.0, 0.0, 1.738881409786199E9, 0.0, 2025-02-06 17:36:49.786
140.0, -4165.851076346765, -4236.616699292266, -4270.613702608789, -4298.665141900199, -187500.02235174447, -183385.0885492669, 3348.8277612719253, -184252.26917889944, 0.012, 0.058, 0.98, 192.0, 0.0, 0.0, 0.0, 0.0, 0.0, 0.0, 0.0, 0.0, 0.0, 1.738881409790244E9, 0.0, 2025-02-06 17:36:49.790
141.0, -4165.6946141355775, -4236.348478358803, -4270.189019464137, -4298.463976200102, -187500.02235174447, -183384.30623821096, 3348.4254298717296, -184251.39746086567, 0.012, 0.058, 0.98, 192.0, 0.0, 0.0, 0.0, 0.0, 0.0, 0.0, 0.0, 0.0, 0.0, 1.738881409793232E9, 0.0, 2025-02-06 17:36:49.793
142.0, -4166.342814724781, -4236.996678948007, -4270.8819235422525, -4299.179232022671, -187500.02235174447, -183384.75327310007, 3349.319499649942, -184251.73273703252, 0.012, 0.058, 0.98, 192.0, 0.0, 0.0, 0.0, 0.0, 0.0, 0.0, 0.0, 0.0, 0.0, 1.738881409797244E9, 0.0, 2025-02-06 17:36:49.797
143.0, -4167.393346714181, -4238.002507448496, -4271.9995107650175, -4300.207412267615, -187500.02235174447, -183385.6249911338, 3350.571197339439, -184252.51504808845, 0.012, 0.058, 0.98, 192.0, 0.0, 0.0, 0.0, 0.0, 0.0, 0.0, 0.0, 0.0, 0.0, 1.738881409801293E9, 0.0, 2025-02-06 17:36:49.801
144.0, -4166.387518213692, -4236.907271970185, -4271.150144475716, -4299.156880278216, -187500.02235174447, -183384.0380172775, 3349.4759618611292, -184250.72690853203, 0.012, 0.058, 0.98, 192.0, 0.0, 0.0, 0.0, 0.0, 0.0, 0.0, 0.0, 0.0, 0.0, 1.738881409805301E9, 0.0, 2025-02-06 17:36:49.805
145.0, -4165.6946141355775, -4236.259071380981, -4270.36783341978, -4298.441624455646, -187500.02235174447, -183382.786319588, 3348.648947316283, -184249.31874863134, 0.012, 0.058, 0.98, 192.0, 0.0, 0.0, 0.0, 0.0, 0.0, 0.0, 0.0, 0.0, 0.0, 1.738881409809318E9, 0.0, 2025-02-06 17:36:49.809
146.0, -4167.169829269627, -4237.913100470674, -4271.954807276107, -4300.028598311973, -187500.02235174447, -183384.39564518878, 3350.526493850529, -184250.77161202094, 0.012, 0.058, 0.98, 192.0, 0.0, 0.0, 0.0, 0.0, 0.0, 0.0, 0.0, 0.0, 0.0, 1.738881409814337E9, 0.0, 2025-02-06 17:36:49.814
147.0, -4166.342814724781, -4237.086085925828, -4271.217199709082, -4299.335694233858, -187500.02235174447, -183383.14394749928, 3349.610072327861, -184249.25169339796, 0.012, 0.058, 0.98, 192.0, 0.0, 0.0, 0.0, 0.0, 0.0, 0.0, 0.0, 0.0, 0.0, 1.738881409818366E9, 0.0, 2025-02-06 17:36:49.818
148.0, -4164.77819261291, -4235.454408580591, -4269.65257759721, -4297.65931339971, -187500.02235174447, -183380.90877305376, 3347.6654705602496, -184246.90476023016, 0.012, 0.058, 0.98, 192.0, 0.0, 0.0, 0.0, 0.0, 0.0, 0.0, 0.0, 0.0, 0.0, 1.738881409821384E9, 0.0, 2025-02-06 17:36:49.821
149.0, -4164.621730401723, -4235.141484158216, -4269.2949496859255, -4297.324037232881, -187500.02235174447, -183380.1264619978, 3347.3078426489647, -184246.07774568532, 0.008, 0.056, 0.978, 192.0, 0.0, 64.0, 1.0, 192.0, 30.0, 144.0, 0.0, 0.0, 0.0, 1.738881409825387E9, 0.0, 2025-02-06 17:36:49.825
150.0, -4164.845247846276, -4235.387353347225, -4269.451411897113, -4297.525202932979, -187500.02235174447, -183379.96999978664, 3347.4419531156964, -184245.60835905175, 0.008, 0.056, 0.978, 192.0, 0.0, 0.0, 0.0, 0.0, 0.0, 0.0, 0.0, 0.0, 0.0, 1.738881409829417E9, 0.0, 2025-02-06 17:36:49.829
151.0, -4166.074593791317, -4236.795513247909, -4270.859571797797, -4298.978066322573, -187500.02235174447, -183381.31110445395, 3349.1183339498443, -184246.7930015079, 0.008, 0.056, 0.978, 192.0, 0.0, 0.0, 0.0, 0.0, 0.0, 0.0, 0.0, 0.0, 0.0, 1.738881409833445E9, 0.0, 2025-02-06 17:36:49.833
152.0, -4165.784021113399, -4236.527292314446, -4270.680757842155, -4298.709845389109, -187500.02235174447, -183380.61820037584, 3348.872464760836, -184246.12244917423, 0.008, 0.056, 0.978, 192.0, 0.0, 0.0, 0.0, 0.0, 0.0, 0.0, 0.0, 0.0, 0.0, 1.738881409837452E9, 0.0, 2025-02-06 17:36:49.837
153.0, -4166.789849613887, -4237.466065581568, -4271.597179364822, -4299.648618656232, -187500.02235174447, -183381.35580794286, 3350.101810705878, -184246.74829801897, 0.008, 0.056, 0.978, 192.0, 0.0, 0.0, 0.0, 0.0, 0.0, 0.0, 0.0, 0.0, 0.0, 1.738881409841464E9, 0.0, 2025-02-06 17:36:49.841
154.0, -4166.611035658245, -4237.376658603747, -4271.396013664725, -4299.492156445045, -187500.02235174447, -183380.79701433147, 3349.878293261325, -184246.05539394086, 0.008, 0.056, 0.978, 192.0, 0.0, 0.0, 0.0, 0.0, 0.0, 0.0, 0.0, 0.0, 0.0, 1.738881409846488E9, 0.0, 2025-02-06 17:36:49.846
155.0, -4165.605207157756, -4236.281423125437, -4270.300778186414, -4298.396920966736, -187500.02235174447, -183379.09828175287, 3348.5371885940062, -184244.17784740662, 0.008, 0.056, 0.978, 192.0, 0.0, 0.0, 0.0, 0.0, 0.0, 0.0, 0.0, 0.0, 0.0, 1.738881409849481E9, 0.0, 2025-02-06 17:36:49.849
156.0, -4164.487619934991, -4235.0744289248505, -4269.116135730283, -4297.011112810506, -187500.02235174447, -183377.24308696308, 3347.0396217155007, -184242.09913517226, 0.008, 0.056, 0.978, 192.0, 0.0, 0.0, 0.0, 0.0, 0.0, 0.0, 0.0, 0.0, 0.0, 1.738881409853499E9, 0.0, 2025-02-06 17:36:49.853
157.0, -4165.292282735381, -4236.035553936428, -4270.099612486317, -4297.905182588718, -187500.02235174447, -183377.9806945301, 3348.134857193811, -184242.68028052812, 0.008, 0.056, 0.978, 192.0, 0.0, 0.0, 0.0, 0.0, 0.0, 0.0, 0.0, 0.0, 0.0, 1.738881409857524E9, 0.0, 2025-02-06 17:36:49.857
158.0, -4166.409869958147, -4237.1307894147385, -4271.194847964626, -4299.067473300394, -187500.02235174447, -183378.94181954168, 3349.4312583722185, -184243.66375728414, 0.008, 0.056, 0.978, 192.0, 0.0, 0.0, 0.0, 0.0, 0.0, 0.0, 0.0, 0.0, 0.0, 1.738881409861548E9, 0.0, 2025-02-06 17:36:49.861
159.0, -4165.784021113399, -4236.5496440589, -4270.345481675325, -4298.3522174778245, -187500.02235174447, -183377.64541836327, 3348.648947316283, -184242.32265261683, 0.006, 0.056, 0.982, 192.0, 0.0, 48.0, 1.0, 192.0, 30.0, 176.0, 0.0, 0.0, 0.0, 1.738881409865578E9, 0.0, 2025-02-06 17:36:49.865
160.0, -4165.404041457658, -4236.102609169795, -4270.032557252951, -4297.972237822084, -187500.02235174447, -183376.86310730735, 3348.3136711494535, -184241.27212062743, 0.006, 0.056, 0.982, 192.0, 0.0, 0.0, 0.0, 0.0, 0.0, 0.0, 0.0, 0.0, 0.0, 1.738881409869589E9, 0.0, 2025-02-06 17:36:49.869
161.0, -4166.342814724781, -4236.996678948007, -4271.03838575344, -4299.0004180670285, -187500.02235174447, -183377.71247359665, 3349.543017094495, -184241.9426729611, 0.006, 0.056, 0.982, 192.0, 0.0, 0.0, 0.0, 0.0, 0.0, 0.0, 0.0, 0.0, 0.0, 1.738881409874604E9, 0.0, 2025-02-06 17:36:49.874
162.0, -4167.5721606698235, -4238.3601353597805, -4272.312435187392, -4300.386226223258, -187500.02235174447, -183378.96417128615, 3351.174694439733, -184243.12731541722, 0.006, 0.056, 0.982, 192.0, 0.0, 0.0, 0.0, 0.0, 0.0, 0.0, 0.0, 0.0, 0.0, 1.738881409877638E9, 0.0, 2025-02-06 17:36:49.877
163.0, -4166.745146124977, -4237.443713837113, -4271.396013664725, -4299.492156445045, -187500.02235174447, -183377.533659641, 3349.9453484946907, -184241.45093458306, 0.006, 0.056, 0.982, 192.0, 0.0, 0.0, 0.0, 0.0, 0.0, 0.0, 0.0, 0.0, 0.0, 1.738881409881639E9, 0.0, 2025-02-06 17:36:49.881
164.0, -4165.962835069041, -4236.482588825535, -4270.546647375422, -4298.508679689012, -187500.02235174447, -183375.99138927358, 3348.7383542941043, -184239.77455374892, 0.006, 0.056, 0.982, 192.0, 0.0, 0.0, 0.0, 0.0, 0.0, 0.0, 0.0, 0.0, 0.0, 1.73888140988566E9, 0.0, 2025-02-06 17:36:49.885
165.0, -4164.487619934991, -4235.052077180395, -4269.138487474738, -4297.055816299417, -187500.02235174447, -183373.91267703925, 3347.0396217155007, -184237.51702755893, 0.006, 0.056, 0.982, 192.0, 0.0, 0.0, 0.0, 0.0, 0.0, 0.0, 0.0, 0.0, 0.0, 1.738881409889681E9, 0.0, 2025-02-06 17:36:49.889
166.0, -4163.504143178957, -4234.113303913272, -4268.155010718705, -4296.027636054473, -187500.02235174447, -183372.30335143846, 3345.877331003825, -184235.8406467248, 0.006, 0.056, 0.982, 192.0, 0.0, 0.0, 0.0, 0.0, 0.0, 0.0, 0.0, 0.0, 0.0, 1.738881409893689E9, 0.0, 2025-02-06 17:36:49.893
167.0, -4165.560503668846, -4236.348478358803, -4270.345481675325, -4298.37456922228, -187500.02235174447, -183374.5832293729, 3348.5371885940062, -184238.0311176814, 0.006, 0.056, 0.982, 192.0, 0.0, 0.0, 0.0, 0.0, 0.0, 0.0, 0.0, 0.0, 0.0, 1.738881409897715E9, 0.0, 2025-02-06 17:36:49.897
168.0, -4164.845247846276, -4235.588519047323, -4269.697281086121, -4297.636961655255, -187500.02235174447, -183373.42093866123, 3347.777229282526, -184236.75706824745, 0.006, 0.056, 0.982, 192.0, 0.0, 0.0, 0.0, 0.0, 0.0, 0.0, 0.0, 0.0, 0.0, 1.738881409902742E9, 0.0, 2025-02-06 17:36:49.902
169.0, -4164.2864542348925, -4234.985021947029, -4269.093783985828, -4297.011112810506, -187500.02235174447, -183372.34805492737, 3347.196083926688, -184235.50537055795, 0.01, 0.06, 0.984, 192.0, 0.0, 80.0, 1.0, 224.0, 30.0, 192.0, 0.0, 0.0, 0.0, 1.73888140990573E9, 0.0, 2025-02-06 17:36:49.905
170.0, -4165.627558902212, -4236.415533592169, -4270.434888653146, -4298.41927271119, -187500.02235174447, -183373.64445610577, 3348.939519994202, -184236.6900130141, 0.01, 0.06, 0.984, 192.0, 0.0, 0.0, 0.0, 0.0, 0.0, 0.0, 0.0, 0.0, 0.0, 1.738881409908763E9, 0.0, 2025-02-06 17:36:49.908
171.0, -4165.113468779739, -4235.74498125851, -4269.786688063942, -4297.8828308442635, -187500.02235174447, -183372.4821653941, 3348.1795606827213, -184235.41596358013, 0.01, 0.06, 0.984, 192.0, 0.0, 0.0, 0.0, 0.0, 0.0, 0.0, 0.0, 0.0, 0.0, 1.738881409912775E9, 0.0, 2025-02-06 17:36:49.912
172.0, -4163.392384456681, -4234.001545190996, -4268.043251996428, -4295.915877332196, -187500.02235174447, -183369.84465954837, 3345.7879240260036, -184232.62199552322, 0.01, 0.06, 0.984, 192.0, 0.0, 0.0, 0.0, 0.0, 0.0, 0.0, 0.0, 0.0, 0.0, 1.738881409917784E9, 0.0, 2025-02-06 17:36:49.917
173.0, -4164.554675168357, -4235.342649858314, -4269.339653174836, -4297.301685488425, -187500.02235174447, -183371.07400549343, 3347.263139160054, -184233.67252751262, 0.01, 0.06, 0.984, 192.0, 0.0, 0.0, 0.0, 0.0, 0.0, 0.0, 0.0, 0.0, 0.0, 1.738881409921813E9, 0.0, 2025-02-06 17:36:49.921
174.0, -4164.353509468259, -4235.052077180395, -4269.138487474738, -4297.100519788328, -187500.02235174447, -183370.51521188204, 3347.0172699710456, -184232.95727169004, 0.01, 0.06, 0.984, 192.0, 0.0, 0.0, 0.0, 0.0, 0.0, 0.0, 0.0, 0.0, 0.0, 1.738881409925828E9, 0.0, 2025-02-06 17:36:49.925
175.0, -4162.8782943342085, -4233.621565535255, -4267.618568851777, -4295.513545932001, -187500.02235174447, -183368.41414790324, 3345.296185647987, -184230.61033852224, 0.01, 0.06, 0.984, 192.0, 0.0, 0.0, 0.0, 0.0, 0.0, 0.0, 0.0, 0.0, 0.0, 1.738881409929855E9, 0.0, 2025-02-06 17:36:49.929
176.0, -4162.364204211736, -4233.174530646149, -4267.171533962672, -4295.13356627626, -187500.02235174447, -183367.47537463612, 3345.005612970068, -184229.55980653284, 0.01, 0.06, 0.984, 192.0, 0.0, 0.0, 0.0, 0.0, 0.0, 0.0, 0.0, 0.0, 0.0, 1.738881409933865E9, 0.0, 2025-02-06 17:36:49.933
177.0, -4162.96770131203, -4233.6662690241665, -4267.685624085143, -4295.670008143188, -187500.02235174447, -183367.69889208066, 3345.6314618148162, -184229.80567572184, 0.01, 0.06, 0.984, 192.0, 0.0, 0.0, 0.0, 0.0, 0.0, 0.0, 0.0, 0.0, 0.0, 1.738881409936882E9, 0.0, 2025-02-06 17:36:49.936
178.0, -4164.174695512616, -4235.052077180395, -4268.982025263551, -4296.966409321596, -187500.02235174447, -183368.81647930344, 3347.196083926688, -184230.76680073343, 0.01, 0.06, 0.984, 192.0, 0.0, 0.0, 0.0, 0.0, 0.0, 0.0, 0.0, 0.0, 0.0, 1.738881409940903E9, 0.0, 2025-02-06 17:36:49.940
179.0, -4163.191218756583, -4234.113303913272, -4267.931493274152, -4295.938229076652, -187500.02235174447, -183367.25185719156, 3345.944386237191, -184229.00101292148, 0.01, 0.058, 0.984, 192.0, 0.0, 80.0, 1.0, 208.0, 30.0, 192.0, 0.0, 0.0, 0.0, 1.738881409945918E9, 0.0, 2025-02-06 17:36:49.945
180.0, -4163.6829571346, -4234.537987057923, -4268.445583396624, -4296.541726176944, -187500.02235174447, -183367.47537463612, 3346.4584763596627, -184229.15747513264, 0.01, 0.058, 0.984, 192.0, 0.0, 0.0, 0.0, 0.0, 0.0, 0.0, 0.0, 0.0, 0.0, 1.738881409949927E9, 0.0, 2025-02-06 17:36:49.949
181.0, -4164.241750745982, -4235.186187647127, -4268.937321774641, -4297.055816299417, -187500.02235174447, -183367.72124382513, 3347.0843252044115, -184229.24688211048, 0.01, 0.058, 0.984, 192.0, 0.0, 0.0, 0.0, 0.0, 0.0, 0.0, 0.0, 0.0, 0.0, 1.73888140995394E9, 0.0, 2025-02-06 17:36:49.953
182.0, -4165.404041457658, -4236.348478358803, -4269.98785376404, -4298.218107011093, -187500.02235174447, -183368.72707232562, 3348.492485105096, -184230.25271061098, 0.01, 0.058, 0.984, 192.0, 0.0, 0.0, 0.0, 0.0, 0.0, 0.0, 0.0, 0.0, 0.0, 1.738881409957969E9, 0.0, 2025-02-06 17:36:49.957
183.0, -4166.074593791317, -4237.086085925828, -4270.680757842155, -4298.955714578118, -187500.02235174447, -183369.17410721473, 3349.3865548833082, -184230.5432832889, 0.01, 0.058, 0.984, 192.0, 0.0, 0.0, 0.0, 0.0, 0.0, 0.0, 0.0, 0.0, 0.0, 1.738881409961006E9, 0.0, 2025-02-06 17:36:49.961
184.0, -4165.292282735381, -4236.348478358803, -4269.898446786219, -4298.262810500003, -187500.02235174447, -183367.94476126967, 3348.6265955718277, -184229.06806815483, 0.01, 0.058, 0.984, 192.0, 0.0, 0.0, 0.0, 0.0, 0.0, 0.0, 0.0, 0.0, 0.0, 1.738881409964995E9, 0.0, 2025-02-06 17:36:49.964
185.0, -4164.264102490438, -4235.230891136038, -4268.870266541275, -4297.078168043872, -187500.02235174447, -183366.26838043553, 3347.419601371241, -184227.30228034288, 0.01, 0.058, 0.984, 192.0, 0.0, 0.0, 0.0, 0.0, 0.0, 0.0, 0.0, 0.0, 0.0, 1.738881409969023E9, 0.0, 2025-02-06 17:36:49.969
186.0, -4164.599378657267, -4235.543815558412, -4269.138487474738, -4297.324037232881, -187500.02235174447, -183366.20132520216, 3347.71017404916, -184227.12346638722, 0.01, 0.058, 0.984, 192.0, 0.0, 0.0, 0.0, 0.0, 0.0, 0.0, 0.0, 0.0, 0.0, 1.738881409974032E9, 0.0, 2025-02-06 17:36:49.974
187.0, -4165.739317624488, -4236.728458014543, -4270.457240397602, -4298.709845389109, -187500.02235174447, -183367.25185719156, 3349.1406856942995, -184228.0845913988, 0.01, 0.058, 0.984, 192.0, 0.0, 0.0, 0.0, 0.0, 0.0, 0.0, 0.0, 0.0, 0.0, 1.738881409978061E9, 0.0, 2025-02-06 17:36:49.978
188.0, -4165.8734280912195, -4236.795513247909, -4270.613702608789, -4298.8216041113865, -187500.02235174447, -183367.09539498037, 3349.207740927666, -184227.74931523198, 0.01, 0.058, 0.984, 192.0, 0.0, 0.0, 0.0, 0.0, 0.0, 0.0, 0.0, 0.0, 0.0, 1.73888140998216E9, 0.0, 2025-02-06 17:36:49.982
189.0, -4166.499276935969, -4237.466065581568, -4271.0607374978945, -4299.402749467225, -187500.02235174447, -183367.47537463612, 3349.9229967502356, -184228.06223965433, 0.01, 0.058, 0.984, 192.0, 0.0, 0.0, 0.0, 0.0, 0.0, 0.0, 0.0, 0.0, 0.0, 1.738881409985149E9, 0.0, 2025-02-06 17:36:49.985
190.0, -4168.734451381499, -4239.902405727196, -4273.362967176791, -4301.794386123942, -187500.02235174447, -183369.95641827065, 3352.716964807149, -184230.27506235542, 0.014, 0.056, 0.978, 192.0, 0.0, 112.0, 1.0, 192.0, 30.0, 144.0, 0.0, 0.0, 0.0, 1.738881409989156E9, 0.0, 2025-02-06 17:36:49.989
191.0, -4168.645044403678, -4239.768295260465, -4273.161801476694, -4301.6155721683, -187500.02235174447, -183369.21881070363, 3352.5605025959617, -184229.42569606612, 0.014, 0.056, 0.978, 192.0, 0.0, 0.0, 0.0, 0.0, 0.0, 0.0, 0.0, 0.0, 0.0, 1.738881409993165E9, 0.0, 2025-02-06 17:36:49.993
192.0, -4166.20870425805, -4237.197844648104, -4270.658406097699, -4298.955714578118, -187500.02235174447, -183365.75429031305, 3349.4759618611292, -184225.8941204422, 0.014, 0.056, 0.978, 192.0, 0.0, 0.0, 0.0, 0.0, 0.0, 0.0, 0.0, 0.0, 0.0, 1.738881409997155E9, 0.0, 2025-02-06 17:36:49.997
193.0, -4166.745146124977, -4237.823693492853, -4271.396013664725, -4299.626266911777, -187500.02235174447, -183366.20132520216, 3350.213569428154, -184226.229396609, 0.014, 0.056, 0.978, 192.0, 0.0, 0.0, 0.0, 0.0, 0.0, 0.0, 0.0, 0.0, 0.0, 1.738881410001189E9, 0.0, 2025-02-06 17:36:50.001
194.0, -4168.086250792295, -4239.209501649082, -4272.737118332043, -4301.146185534738, -187500.02235174447, -183367.58713335838, 3351.8899502623026, -184227.36933557622, 0.014, 0.056, 0.978, 192.0, 0.0, 0.0, 0.0, 0.0, 0.0, 0.0, 0.0, 0.0, 0.0, 1.738881410005222E9, 0.0, 2025-02-06 17:36:50.005
195.0, -4168.354471725759, -4239.41066734918, -4272.982987521051, -4301.481461701567, -187500.02235174447, -183367.47537463612, 3352.158171195766, -184227.16816987612, 0.014, 0.056, 0.978, 192.0, 0.0, 0.0, 0.0, 0.0, 0.0, 0.0, 0.0, 0.0, 0.0, 1.738881410010215E9, 0.0, 2025-02-06 17:36:50.010
196.0, -4167.549808925368, -4238.471894082057, -4272.066565998383, -4300.386226223258, -187500.02235174447, -183365.93310426868, 3350.839418272903, -184225.46943729752, 0.014, 0.056, 0.978, 192.0, 0.0, 0.0, 0.0, 0.0, 0.0, 0.0, 0.0, 0.0, 0.0, 1.738881410013212E9, 0.0, 2025-02-06 17:36:50.013
197.0, -4168.309768236848, -4239.276556882448, -4272.826525309864, -4301.235592512559, -187500.02235174447, -183366.44719439116, 3351.8228950289367, -184225.84941695328, 0.014, 0.056, 0.978, 192.0, 0.0, 0.0, 0.0, 0.0, 0.0, 0.0, 0.0, 0.0, 0.0, 1.738881410017229E9, 0.0, 2025-02-06 17:36:50.017
198.0, -4168.801506614865, -4239.83535049383, -4273.340615432336, -4301.727330890576, -187500.02235174447, -183366.71541532464, 3352.4040403847744, -184226.00587916447, 0.014, 0.056, 0.978, 192.0, 0.0, 0.0, 0.0, 0.0, 0.0, 0.0, 0.0, 0.0, 0.0, 1.73888141002125E9, 0.0, 2025-02-06 17:36:50.021
199.0, -4167.147477525172, -4238.047210937406, -4271.619531109278, -4299.84978435633, -187500.02235174447, -183364.25672343455, 3350.3476798948864, -184223.3236698298, 0.014, 0.056, 0.978, 192.0, 0.0, 0.0, 0.0, 0.0, 0.0, 0.0, 0.0, 0.0, 0.0, 1.738881410025265E9, 0.0, 2025-02-06 17:36:50.025
200.0, -4168.332119981304, -4239.276556882448, -4272.848877054319, -4301.28029600147, -187500.02235174447, -183365.41901414623, 3351.9793572401236, -184224.41890530812, 0.01, 0.058, 0.982, 192.0, 0.0, 80.0, 1.0, 208.0, 30.0, 176.0, 0.0, 0.0, 0.0, 1.738881410029264E9, 0.0, 2025-02-06 17:36:50.029
201.0, -4168.175657770116, -4239.07539118235, -4272.692414843133, -4301.0567785569165, -187500.02235174447, -183364.83786879038, 3351.778191540026, -184223.77070471892, 0.01, 0.058, 0.982, 192.0, 0.0, 0.0, 0.0, 0.0, 0.0, 0.0, 0.0, 0.0, 0.0, 1.738881410033286E9, 0.0, 2025-02-06 17:36:50.033
202.0, -4168.06389904784, -4238.918928971163, -4272.580656120856, -4301.0567785569165, -187500.02235174447, -183364.34613041236, 3351.6217293288387, -184223.10015238528, 0.01, 0.058, 0.982, 192.0, 0.0, 0.0, 0.0, 0.0, 0.0, 0.0, 0.0, 0.0, 0.0, 1.738881410038313E9, 0.0, 2025-02-06 17:36:50.038
203.0, -4167.1027740362615, -4237.913100470674, -4271.619531109278, -4300.050950056428, -187500.02235174447, -183362.69210132267, 3350.3923833837966, -184221.26730933992, 0.01, 0.058, 0.982, 192.0, 0.0, 0.0, 0.0, 0.0, 0.0, 0.0, 0.0, 0.0, 0.0, 1.738881410041322E9, 0.0, 2025-02-06 17:36:50.041
204.0, -4168.175657770116, -4238.963632460074, -4272.692414843133, -4301.123833790282, -187500.02235174447, -183363.74263331207, 3351.5993775843835, -184222.20608260707, 0.01, 0.058, 0.982, 192.0, 0.0, 0.0, 0.0, 0.0, 0.0, 0.0, 0.0, 0.0, 0.0, 1.73888141004533E9, 0.0, 2025-02-06 17:36:50.045
205.0, -4166.745146124977, -4237.399010348202, -4270.948978775618, -4299.246287256037, -187500.02235174447, -183361.23923793307, 3349.4759618611292, -184219.5909285058, 0.01, 0.058, 0.982, 192.0, 0.0, 0.0, 0.0, 0.0, 0.0, 0.0, 0.0, 0.0, 0.0, 1.738881410049342E9, 0.0, 2025-02-06 17:36:50.049
206.0, -4166.387518213692, -4237.019030692462, -4270.457240397602, -4298.8216041113865, -187500.02235174447, -183360.34516815486, 3349.0065752275677, -184218.6298034942, 0.01, 0.058, 0.982, 192.0, 0.0, 0.0, 0.0, 0.0, 0.0, 0.0, 0.0, 0.0, 0.0, 1.738881410053399E9, 0.0, 2025-02-06 17:36:50.053
207.0, -4165.605207157756, -4236.147312658705, -4269.786688063942, -4298.106348288817, -187500.02235174447, -183359.07111872092, 3348.224264171632, -184217.1769401046, 0.01, 0.058, 0.982, 192.0, 0.0, 0.0, 0.0, 0.0, 0.0, 0.0, 0.0, 0.0, 0.0, 1.738881410057401E9, 0.0, 2025-02-06 17:36:50.057
208.0, -4166.678090891611, -4237.22019639256, -4270.8819235422525, -4299.223935511582, -187500.02235174447, -183360.00989198804, 3349.587720583406, -184217.89219592718, 0.01, 0.058, 0.982, 192.0, 0.0, 0.0, 0.0, 0.0, 0.0, 0.0, 0.0, 0.0, 0.0, 1.738881410061406E9, 0.0, 2025-02-06 17:36:50.061
209.0, -4170.0979077932725, -4240.908234227685, -4274.36879567728, -4303.023732068984, -187500.02235174447, -183364.07790947892, 3354.0133659855564, -184221.8261029513, 0.01, 0.058, 0.982, 192.0, 0.0, 0.0, 0.0, 0.0, 0.0, 0.0, 0.0, 0.0, 0.0, 1.738881410066434E9, 0.0, 2025-02-06 17:36:50.066
210.0, -4169.963797326541, -4240.707068527588, -4274.234685210548, -4302.911973346707, -187500.02235174447, -183363.51911586753, 3353.767496796548, -184221.11084712873, 0.014, 0.062, 0.986, 192.0, 0.0, 112.0, 1.0, 240.0, 30.0, 208.0, 0.0, 0.0, 0.0, 1.738881410069462E9, 0.0, 2025-02-06 17:36:50.069
211.0, -4167.34864322527, -4237.93545221513, -4271.463068898091, -4300.050950056428, -187500.02235174447, -183359.80872628794, 3350.4147351282522, -184217.2886988269, 0.014, 0.062, 0.986, 192.0, 0.0, 0.0, 0.0, 0.0, 0.0, 0.0, 0.0, 0.0, 0.0, 1.738881410072461E9, 0.0, 2025-02-06 17:36:50.072
212.0, -4168.421526959125, -4239.164798160172, -4272.535952631945, -4301.1685372791935, -187500.02235174447, -183360.81455478843, 3351.6664328177494, -184218.09336162728, 0.014, 0.062, 0.986, 192.0, 0.0, 0.0, 0.0, 0.0, 0.0, 0.0, 0.0, 0.0, 0.0, 1.738881410076483E9, 0.0, 2025-02-06 17:36:50.076
213.0, -4168.8685618482305, -4239.611833049278, -4273.027691009962, -4301.6155721683, -187500.02235174447, -183361.03807223297, 3352.2922816624978, -184218.1827686051, 0.014, 0.062, 0.986, 192.0, 0.0, 0.0, 0.0, 0.0, 0.0, 0.0, 0.0, 0.0, 0.0, 1.738881410081495E9, 0.0, 2025-02-06 17:36:50.081
214.0, -4167.996843814474, -4238.583652804334, -4272.155972976205, -4300.587391923355, -187500.02235174447, -183359.49580186556, 3351.1076392063665, -184216.46168428203, 0.014, 0.062, 0.986, 192.0, 0.0, 0.0, 0.0, 0.0, 0.0, 0.0, 0.0, 0.0, 0.0, 1.738881410085532E9, 0.0, 2025-02-06 17:36:50.085
215.0, -4168.890913592686, -4239.567129560367, -4273.184153221149, -4301.637923912755, -187500.02235174447, -183360.41222338824, 3352.3369851514085, -184217.26634708242, 0.014, 0.062, 0.986, 192.0, 0.0, 0.0, 0.0, 0.0, 0.0, 0.0, 0.0, 0.0, 0.0, 1.738881410089553E9, 0.0, 2025-02-06 17:36:50.089
216.0, -4169.405003715158, -4240.170626660661, -4273.6088363658, -4302.241421013048, -187500.02235174447, -183360.61338908834, 3352.9628339961573, -184217.35575406026, 0.014, 0.062, 0.986, 192.0, 0.0, 0.0, 0.0, 0.0, 0.0, 0.0, 0.0, 0.0, 0.0, 1.738881410093559E9, 0.0, 2025-02-06 17:36:50.093
217.0, -4169.986149070996, -4240.818827249865, -4274.145278232727, -4302.911973346707, -187500.02235174447, -183361.10512746635, 3353.745145052093, -184217.5792715048, 0.014, 0.062, 0.986, 192.0, 0.0, 0.0, 0.0, 0.0, 0.0, 0.0, 0.0, 0.0, 0.0, 1.738881410097579E9, 0.0, 2025-02-06 17:36:50.097
218.0, -4169.874390348719, -4240.774123760953, -4274.122926488272, -4302.867269857797, -187500.02235174447, -183360.65809257724, 3353.7227933076374, -184217.0875331268, 0.014, 0.062, 0.986, 192.0, 0.0, 0.0, 0.0, 0.0, 0.0, 0.0, 0.0, 0.0, 0.0, 1.738881410100581E9, 0.0, 2025-02-06 17:36:50.100
219.0, -4170.187314771094, -4241.019992949962, -4274.36879567728, -4303.09078730235, -187500.02235174447, -183360.43457513268, 3354.0133659855564, -184216.8193121933, 0.014, 0.062, 0.986, 192.0, 0.0, 0.0, 0.0, 0.0, 0.0, 0.0, 0.0, 0.0, 0.0, 1.738881410104609E9, 0.0, 2025-02-06 17:36:50.104
220.0, -4170.8578671047535, -4241.735248772532, -4275.03934801094, -4303.80604312492, -187500.02235174447, -183360.83690653287, 3354.6615665747604, -184217.10988487126, 0.01, 0.056, 0.988, 192.0, 0.0, 80.0, 1.0, 192.0, 30.0, 224.0, 0.0, 0.0, 0.0, 1.738881410109602E9, 0.0, 2025-02-06 17:36:50.109
221.0, -4169.427355459614, -4240.170626660661, -4273.452374154613, -4302.174365779682, -187500.02235174447, -183358.55702859844, 3352.716964807149, -184214.65119298117, 0.01, 0.056, 0.988, 192.0, 0.0, 0.0, 0.0, 0.0, 0.0, 0.0, 0.0, 0.0, 0.0, 1.738881410113625E9, 0.0, 2025-02-06 17:36:50.113
222.0, -4168.06389904784, -4238.69541152661, -4271.932455531652, -4300.542688434445, -187500.02235174447, -183356.4336128752, 3350.8841217618137, -184212.3266115578, 0.01, 0.056, 0.988, 192.0, 0.0, 0.0, 0.0, 0.0, 0.0, 0.0, 0.0, 0.0, 0.0, 1.738881410117657E9, 0.0, 2025-02-06 17:36:50.117
223.0, -4169.136782781695, -4239.812998749376, -4273.117097987783, -4301.727330890576, -187500.02235174447, -183357.39473788676, 3352.3146334069534, -184213.220681336, 0.01, 0.056, 0.988, 192.0, 0.0, 0.0, 0.0, 0.0, 0.0, 0.0, 0.0, 0.0, 0.0, 1.738881410121659E9, 0.0, 2025-02-06 17:36:50.121
224.0, -4169.874390348719, -4240.729420272043, -4274.078222999361, -4302.733159391065, -187500.02235174447, -183358.06529022043, 3353.4992758630847, -184213.84653018077, 0.01, 0.056, 0.988, 192.0, 0.0, 0.0, 0.0, 0.0, 0.0, 0.0, 0.0, 0.0, 0.0, 1.738881410125681E9, 0.0, 2025-02-06 17:36:50.125
225.0, -4169.9190938376305, -4240.774123760953, -4274.100574743817, -4302.777862879975, -187500.02235174447, -183357.70766230914, 3353.4992758630847, -184213.39949529167, 0.01, 0.056, 0.988, 192.0, 0.0, 0.0, 0.0, 0.0, 0.0, 0.0, 0.0, 0.0, 0.0, 1.738881410128698E9, 0.0, 2025-02-06 17:36:50.128
226.0, -4170.2096665155495, -4241.042344694418, -4274.41349916619, -4302.956676835618, -187500.02235174447, -183357.66295882023, 3353.834552029914, -184213.1759778471, 0.01, 0.056, 0.988, 192.0, 0.0, 0.0, 0.0, 0.0, 0.0, 0.0, 0.0, 0.0, 0.0, 1.738881410132711E9, 0.0, 2025-02-06 17:36:50.132
227.0, -4169.9190938376305, -4240.774123760953, -4274.100574743817, -4302.688455902155, -187500.02235174447, -183357.05946171994, 3353.543979351995, -184212.41601853562, 0.01, 0.056, 0.988, 192.0, 0.0, 0.0, 0.0, 0.0, 0.0, 0.0, 0.0, 0.0, 0.0, 1.738881410137739E9, 0.0, 2025-02-06 17:36:50.137
228.0, -4168.756803125954, -4239.589481304823, -4272.89358054323, -4301.392054723747, -187500.02235174447, -183355.2266186746, 3351.9123020067577, -184210.44906502357, 0.01, 0.056, 0.988, 192.0, 0.0, 0.0, 0.0, 0.0, 0.0, 0.0, 0.0, 0.0, 0.0, 1.738881410141756E9, 0.0, 2025-02-06 17:36:50.141
229.0, -4168.332119981304, -4239.142446415716, -4272.51360088749, -4300.833261112364, -187500.02235174447, -183354.19843842965, 3351.3088049064645, -184209.28677431188, 0.01, 0.056, 0.988, 192.0, 0.0, 0.0, 0.0, 0.0, 0.0, 0.0, 0.0, 0.0, 0.0, 1.738881410145762E9, 0.0, 2025-02-06 17:36:50.145
230.0, -4169.069727548329, -4239.857702238286, -4273.184153221149, -4301.682627401666, -187500.02235174447, -183354.7795837855, 3352.1805229402216, -184209.68910571208, 0.01, 0.064, 0.986, 192.0, 0.0, 80.0, 2.0, 0.0, 30.0, 208.0, 0.0, 0.0, 0.0, 1.738881410149793E9, 0.0, 2025-02-06 17:36:50.149
231.0, -4169.516762437434, -4240.371792360758, -4273.765298576987, -4302.308476246414, -187500.02235174447, -183355.07015646342, 3352.9404822517017, -184209.91262315665, 0.01, 0.064, 0.986, 192.0, 0.0, 0.0, 0.0, 0.0, 0.0, 0.0, 0.0, 0.0, 0.0, 1.738881410152815E9, 0.0, 2025-02-06 17:36:50.152
232.0, -4169.293244992882, -4240.304737127392, -4273.631188110255, -4302.129662290771, -187500.02235174447, -183354.48901110757, 3352.9404822517017, -184209.26442256744, 0.01, 0.064, 0.986, 192.0, 0.0, 0.0, 0.0, 0.0, 0.0, 0.0, 0.0, 0.0, 0.0, 1.738881410156817E9, 0.0, 2025-02-06 17:36:50.156
233.0, -4170.589646171289, -4241.690545283621, -4274.8158305663865, -4303.359008235813, -187500.02235174447, -183355.71835705262, 3354.5274561080287, -184210.2702510679, 0.01, 0.064, 0.986, 192.0, 0.0, 0.0, 0.0, 0.0, 0.0, 0.0, 0.0, 0.0, 0.0, 1.738881410160843E9, 0.0, 2025-02-06 17:36:50.160
234.0, -4169.427355459614, -4240.4164958496685, -4273.586484621344, -4302.129662290771, -187500.02235174447, -183353.84081051836, 3352.9404822517017, -184208.10213185576, 0.01, 0.064, 0.986, 192.0, 0.0, 0.0, 0.0, 0.0, 0.0, 0.0, 0.0, 0.0, 0.0, 1.738881410164867E9, 0.0, 2025-02-06 17:36:50.164
235.0, -4168.734451381499, -4239.678888282644, -4272.915932287685, -4301.414406468201, -187500.02235174447, -183352.6338163178, 3352.001708984579, -184206.85043416626, 0.01, 0.064, 0.986, 192.0, 0.0, 0.0, 0.0, 0.0, 0.0, 0.0, 0.0, 0.0, 0.0, 1.738881410168883E9, 0.0, 2025-02-06 17:36:50.168
236.0, -4169.650872904167, -4240.617661549766, -4273.966464277085, -4302.353179735324, -187500.02235174447, -183353.43847911817, 3353.096944462889, -184207.56568998884, 0.01, 0.064, 0.986, 192.0, 0.0, 0.0, 0.0, 0.0, 0.0, 0.0, 0.0, 0.0, 0.0, 1.738881410173921E9, 0.0, 2025-02-06 17:36:50.173
237.0, -4169.628521159711, -4240.528254571946, -4273.810002065898, -4302.219069268593, -187500.02235174447, -183352.94674074015, 3352.9404822517017, -184206.89513765517, 0.01, 0.064, 0.986, 192.0, 0.0, 0.0, 0.0, 0.0, 0.0, 0.0, 0.0, 0.0, 0.0, 1.738881410177947E9, 0.0, 2025-02-06 17:36:50.177
238.0, -4169.829686859809, -4240.8858824832305, -4274.145278232727, -4302.464938457601, -187500.02235174447, -183352.9243889957, 3353.2087031851656, -184206.69397195507, 0.01, 0.064, 0.986, 192.0, 0.0, 0.0, 0.0, 0.0, 0.0, 0.0, 0.0, 0.0, 0.0, 1.738881410180952E9, 0.0, 2025-02-06 17:36:50.180
239.0, -4170.947274082574, -4242.070524939361, -4275.419327666679, -4303.716636147098, -187500.02235174447, -183354.01962447402, 3354.750973552582, -184207.6774487111, 0.01, 0.064, 0.986, 192.0, 0.0, 0.0, 0.0, 0.0, 0.0, 0.0, 0.0, 0.0, 0.0, 1.738881410184971E9, 0.0, 2025-02-06 17:36:50.184
240.0, -4170.433183960103, -4241.489379583523, -4274.972292777574, -4303.202546024626, -187500.02235174447, -183353.05849946244, 3354.2592351745648, -184206.5822132328, 0.01, 0.06, 0.986, 192.0, 0.0, 80.0, 1.0, 224.0, 30.0, 208.0, 0.0, 0.0, 0.0, 1.738881410188982E9, 0.0, 2025-02-06 17:36:50.188
241.0, -4170.790811871388, -4241.869359239264, -4275.307568944403, -4303.649580913732, -187500.02235174447, -183353.19260992916, 3354.8850840193136, -184206.49280625497, 0.01, 0.06, 0.986, 192.0, 0.0, 0.0, 0.0, 0.0, 0.0, 0.0, 0.0, 0.0, 0.0, 1.738881410193005E9, 0.0, 2025-02-06 17:36:50.193
242.0, -4170.030852559907, -4241.0646964388725, -4274.458202655102, -4302.800214624431, -187500.02235174447, -183351.71739479512, 3353.767496796548, -184205.0175911209, 0.01, 0.06, 0.986, 192.0, 0.0, 0.0, 0.0, 0.0, 0.0, 0.0, 0.0, 0.0, 0.0, 1.738881410197041E9, 0.0, 2025-02-06 17:36:50.197
243.0, -4170.6343496602, -4241.712897028076, -4275.03934801094, -4303.515470447001, -187500.02235174447, -183352.16442968423, 3354.5051043635735, -184205.28581205438, 0.01, 0.06, 0.986, 192.0, 0.0, 0.0, 0.0, 0.0, 0.0, 0.0, 0.0, 0.0, 0.0, 1.738881410202046E9, 0.0, 2025-02-06 17:36:50.202
244.0, -4170.656701404655, -4241.712897028076, -4275.03934801094, -4303.604877424822, -187500.02235174447, -183351.80680177294, 3354.348642152386, -184204.79407367637, 0.01, 0.06, 0.986, 192.0, 0.0, 0.0, 0.0, 0.0, 0.0, 0.0, 0.0, 0.0, 0.0, 1.738881410206075E9, 0.0, 2025-02-06 17:36:50.206
245.0, -4171.0366810603955, -4242.182283661638, -4275.553438133412, -4303.9848570805625, -187500.02235174447, -183351.96326398413, 3354.8180287859477, -184204.88348065419, 0.01, 0.06, 0.986, 192.0, 0.0, 0.0, 0.0, 0.0, 0.0, 0.0, 0.0, 0.0, 0.0, 1.738881410209153E9, 0.0, 2025-02-06 17:36:50.209
246.0, -4171.304901993859, -4242.450504595102, -4275.776955577964, -4304.23072626957, -187500.02235174447, -183351.8291535174, 3355.130953208322, -184204.5705562318, 0.01, 0.06, 0.986, 192.0, 0.0, 0.0, 0.0, 0.0, 0.0, 0.0, 0.0, 0.0, 0.0, 1.738881410213146E9, 0.0, 2025-02-06 17:36:50.213
247.0, -4172.243675260982, -4243.322222628859, -4276.603970122811, -4305.147147792238, -187500.02235174447, -183352.6338163178, 3356.382650897819, -184205.218756821, 0.01, 0.06, 0.986, 192.0, 0.0, 0.0, 0.0, 0.0, 0.0, 0.0, 0.0, 0.0, 0.0, 1.738881410217156E9, 0.0, 2025-02-06 17:36:50.217
248.0, -4172.623654916722, -4243.74690577351, -4276.9839497785515, -4305.6165344258, -187500.02235174447, -183352.81263027343, 3357.030851487023, -184205.28581205438, 0.01, 0.06, 0.986, 192.0, 0.0, 0.0, 0.0, 0.0, 0.0, 0.0, 0.0, 0.0, 0.0, 1.738881410221151E9, 0.0, 2025-02-06 17:36:50.221
249.0, -4172.713061894544, -4243.858664495786, -4277.095708500828, -4305.683589659166, -187500.02235174447, -183352.54440933996, 3357.030851487023, -184204.79407367637, 0.01, 0.06, 0.986, 192.0, 0.0, 0.0, 0.0, 0.0, 0.0, 0.0, 0.0, 0.0, 0.0, 1.738881410225147E9, 0.0, 2025-02-06 17:36:50.225
250.0, -4173.607131672756, -4244.775086018453, -4277.945074790129, -4306.600011181833, -187500.02235174447, -183353.282016907, 3358.0813834764226, -184205.44227426557, 0.01, 0.06, 0.986, 192.0, 0.0, 0.0, 0.0, 0.0, 0.0, 0.0, 0.0, 0.0, 0.0, 1.738881410229191E9, 0.0, 2025-02-06 17:36:50.229
251.0, -4172.891875850186, -4244.104533684795, -4277.207467223104, -4305.884755359263, -187500.02235174447, -183351.89620875075, 3357.008499742568, -184204.01176262044, 0.014, 0.058, 0.988, 192.0, 0.0, 112.0, 1.0, 208.0, 30.0, 224.0, 0.0, 0.0, 0.0, 1.738881410234222E9, 0.0, 2025-02-06 17:36:50.234
252.0, -4171.416660716136, -4242.539911572923, -4275.620493366778, -4304.18602278066, -187500.02235174447, -183349.5269238385, 3354.9074357637687, -184201.5754224748, 0.014, 0.058, 0.988, 192.0, 0.0, 0.0, 0.0, 0.0, 0.0, 0.0, 0.0, 0.0, 0.0, 1.738881410237237E9, 0.0, 2025-02-06 17:36:50.237
253.0, -4169.181486270605, -4240.103571427295, -4273.184153221149, -4301.637923912755, -187500.02235174447, -183346.15181042574, 3351.867598517847, -184198.06619859533, 0.014, 0.058, 0.988, 192.0, 0.0, 0.0, 0.0, 0.0, 0.0, 0.0, 0.0, 0.0, 0.0, 1.738881410241229E9, 0.0, 2025-02-06 17:36:50.241
254.0, -4169.1591345261495, -4240.1259231717495, -4273.117097987783, -4301.6155721683, -187500.02235174447, -183345.7271272811, 3351.867598517847, -184197.44034975057, 0.014, 0.058, 0.988, 192.0, 0.0, 0.0, 0.0, 0.0, 0.0, 0.0, 0.0, 0.0, 0.0, 1.738881410245237E9, 0.0, 2025-02-06 17:36:50.245
255.0, -4169.136782781695, -4240.103571427295, -4273.2288567100595, -4301.682627401666, -187500.02235174447, -183345.4365546032, 3351.8899502623026, -184196.97096311703, 0.014, 0.058, 0.988, 192.0, 0.0, 0.0, 0.0, 0.0, 0.0, 0.0, 0.0, 0.0, 0.0, 1.738881410249282E9, 0.0, 2025-02-06 17:36:50.249
0.0, -4169.293244992882, -4240.192978405115, -4273.340615432336, -4301.950848335129, -187500.02235174447, -183345.30244413644, 3352.225226429132, -184196.725093928, 0.014, 0.058, 0.988, 192.0, 0.0, 0.0, 0.0, 0.0, 0.0, 0.0, 0.0, 0.0, 0.0, 1.738881410253291E9, 0.0, 2025-02-06 17:36:50.253
1.0, -4169.315596737337, -4240.327088871848, -4273.407670665702, -4302.040255312951, -187500.02235174447, -183344.96716796962, 3352.2922816624978, -184196.34511427226, 0.014, 0.058, 0.988, 192.0, 0.0, 0.0, 0.0, 0.0, 0.0, 0.0, 0.0, 0.0, 0.0, 1.738881410257309E9, 0.0, 2025-02-06 17:36:50.257
2.0, -4168.734451381499, -4239.701240027099, -4272.915932287685, -4301.503813446023, -187500.02235174447, -183343.91663598022, 3351.6217293288387, -184195.11576832723, 0.014, 0.058, 0.988, 192.0, 0.0, 0.0, 0.0, 0.0, 0.0, 0.0, 0.0, 0.0, 0.0, 1.738881410261329E9, 0.0, 2025-02-06 17:36:50.261
3.0, -4169.092079292784, -4240.081219682839, -4273.407670665702, -4301.861441357308, -187500.02235174447, -183344.14015342479, 3352.1134677068553, -184195.16047181614, 0.014, 0.058, 0.988, 192.0, 0.0, 0.0, 0.0, 0.0, 0.0, 0.0, 0.0, 0.0, 0.0, 1.738881410264341E9, 0.0, 2025-02-06 17:36:50.264
4.0, -4168.6897478925885, -4239.611833049278, -4272.9382840321405, -4301.459109957113, -187500.02235174447, -183343.2237319021, 3351.487618862107, -184194.10993982674, 0.014, 0.058, 0.988, 192.0, 0.0, 0.0, 0.0, 0.0, 0.0, 0.0, 0.0, 0.0, 0.0, 1.738881410268356E9, 0.0, 2025-02-06 17:36:50.268
5.0, -4168.287416492393, -4239.276556882448, -4272.5583043764, -4301.123833790282, -187500.02235174447, -183342.44142084615, 3350.9511769951796, -184193.14881481515, 0.008, 0.052000000000000005, 0.984, 192.0, 0.0, 64.0, 1.0, 160.0, 30.0, 192.0, 0.0, 0.0, 0.0, 1.738881410273388E9, 0.0, 2025-02-06 17:36:50.273
6.0, -4167.974492070019, -4239.0083359489845, -4272.245379954026, -4300.833261112364, -187500.02235174447, -183341.59205455685, 3350.526493850529, -184192.14298631466, 0.008, 0.052000000000000005, 0.984, 192.0, 0.0, 0.0, 0.0, 0.0, 0.0, 0.0, 0.0, 0.0, 0.0, 1.73888141027741E9, 0.0, 2025-02-06 17:36:50.277
7.0, -4167.214532758539, -4238.226024893049, -4271.463068898091, -4299.983894823062, -187500.02235174447, -183340.29565337845, 3349.6547758167717, -184190.73482641397, 0.008, 0.052000000000000005, 0.984, 192.0, 0.0, 0.0, 0.0, 0.0, 0.0, 0.0, 0.0, 0.0, 0.0, 1.73888141028143E9, 0.0, 2025-02-06 17:36:50.281
8.0, -4167.549808925368, -4238.606004548789, -4271.84304855383, -4300.386226223258, -187500.02235174447, -183340.45211558964, 3350.3923833837966, -184190.86893688072, 0.008, 0.052000000000000005, 0.984, 192.0, 0.0, 0.0, 0.0, 0.0, 0.0, 0.0, 0.0, 0.0, 0.0, 1.738881410285453E9, 0.0, 2025-02-06 17:36:50.285
9.0, -4168.130954281206, -4239.164798160172, -4272.446545654124, -4301.034426812462, -187500.02235174447, -183340.7203365231, 3351.0852874619113, -184191.13715781417, 0.008, 0.052000000000000005, 0.984, 192.0, 0.0, 0.0, 0.0, 0.0, 0.0, 0.0, 0.0, 0.0, 0.0, 1.73888141028947E9, 0.0, 2025-02-06 17:36:50.289
10.0, -4167.639215903189, -4238.6507080377, -4271.977159020563, -4300.497984945534, -187500.02235174447, -183339.7368597671, 3350.4370868727074, -184189.86310838023, 0.008, 0.052000000000000005, 0.984, 192.0, 0.0, 0.0, 0.0, 0.0, 0.0, 0.0, 0.0, 0.0, 0.0, 1.738881410292486E9, 0.0, 2025-02-06 17:36:50.292
11.0, -4167.1027740362615, -4237.913100470674, -4271.396013664725, -4299.827432611875, -187500.02235174447, -183338.5298655665, 3349.587720583406, -184188.49965196845, 0.008, 0.052000000000000005, 0.984, 192.0, 0.0, 0.0, 0.0, 0.0, 0.0, 0.0, 0.0, 0.0, 0.0, 1.738881410296502E9, 0.0, 2025-02-06 17:36:50.296
12.0, -4168.577989170312, -4239.365963860269, -4272.781821820953, -4301.235592512559, -187500.02235174447, -183339.91567372272, 3351.152342695277, -184189.75134965795, 0.008, 0.052000000000000005, 0.984, 192.0, 0.0, 0.0, 0.0, 0.0, 0.0, 0.0, 0.0, 0.0, 0.0, 1.738881410300509E9, 0.0, 2025-02-06 17:36:50.300
13.0, -4169.025024059418, -4239.857702238286, -4273.251208454515, -4301.749682635032, -187500.02235174447, -183340.09448767835, 3351.7558397955704, -184189.84075663576, 0.008, 0.052000000000000005, 0.984, 192.0, 0.0, 0.0, 0.0, 0.0, 0.0, 0.0, 0.0, 0.0, 0.0, 1.738881410305521E9, 0.0, 2025-02-06 17:36:50.305
14.0, -4167.34864322527, -4238.024859192951, -4271.552475875911, -4300.006246567517, -187500.02235174447, -183337.61344404382, 3349.610072327861, -184187.24795427895, 0.008, 0.052000000000000005, 0.984, 192.0, 0.0, 0.0, 0.0, 0.0, 0.0, 0.0, 0.0, 0.0, 0.0, 1.738881410309544E9, 0.0, 2025-02-06 17:36:50.309
15.0, -4166.722794380521, -4237.287251625926, -4270.8819235422525, -4299.2909907449475, -187500.02235174447, -183336.45115333213, 3348.7160025496487, -184185.90684961164, 0.006, 0.054, 0.98, 192.0, 0.0, 48.0, 1.0, 176.0, 30.0, 160.0, 0.0, 0.0, 0.0, 1.738881410313582E9, 0.0, 2025-02-06 17:36:50.313
16.0, -4165.560503668846, -4236.080257425339, -4269.786688063942, -4298.0616447999055, -187500.02235174447, -183334.75242075353, 3347.486656604607, -184184.00695133294, 0.006, 0.054, 0.98, 192.0, 0.0, 0.0, 0.0, 0.0, 0.0, 0.0, 0.0, 0.0, 0.0, 1.738881410316574E9, 0.0, 2025-02-06 17:36:50.316
17.0, -4167.303939736359, -4237.93545221513, -4271.574827620367, -4299.961543078607, -187500.02235174447, -183336.54056030998, 3349.833589772414, -184185.72803565598, 0.006, 0.054, 0.98, 192.0, 0.0, 0.0, 0.0, 0.0, 0.0, 0.0, 0.0, 0.0, 0.0, 1.738881410320595E9, 0.0, 2025-02-06 17:36:50.320
18.0, -4168.287416492393, -4238.874225482253, -4272.5583043764, -4301.0567785569165, -187500.02235174447, -183337.3675748548, 3351.1076392063665, -184186.39858798965, 0.006, 0.054, 0.98, 192.0, 0.0, 0.0, 0.0, 0.0, 0.0, 0.0, 0.0, 0.0, 0.0, 1.738881410324615E9, 0.0, 2025-02-06 17:36:50.324
19.0, -4167.974492070019, -4238.471894082057, -4272.155972976205, -4300.632095412266, -187500.02235174447, -183336.60761554333, 3350.5041421060732, -184185.34805600025, 0.006, 0.054, 0.98, 192.0, 0.0, 0.0, 0.0, 0.0, 0.0, 0.0, 0.0, 0.0, 0.0, 1.738881410328622E9, 0.0, 2025-02-06 17:36:50.328
20.0, -4167.6839193921, -4238.293080126415, -4271.954807276107, -4300.497984945534, -187500.02235174447, -183336.0264701875, 3350.168865939244, -184184.65515192214, 0.006, 0.054, 0.98, 192.0, 0.0, 0.0, 0.0, 0.0, 0.0, 0.0, 0.0, 0.0, 0.0, 1.738881410333643E9, 0.0, 2025-02-06 17:36:50.333
21.0, -4168.577989170312, -4239.276556882448, -4273.005339265506, -4301.66027565721, -187500.02235174447, -183336.8311329879, 3351.3758601398304, -184185.45981472253, 0.006, 0.054, 0.98, 192.0, 0.0, 0.0, 0.0, 0.0, 0.0, 0.0, 0.0, 0.0, 0.0, 1.738881410337678E9, 0.0, 2025-02-06 17:36:50.337
22.0, -4168.801506614865, -4239.321260371359, -4273.184153221149, -4301.749682635032, -187500.02235174447, -183336.6299672878, 3351.5993775843835, -184185.1245385557, 0.006, 0.054, 0.98, 192.0, 0.0, 0.0, 0.0, 0.0, 0.0, 0.0, 0.0, 0.0, 0.0, 1.738881410341696E9, 0.0, 2025-02-06 17:36:50.341
23.0, -4168.130954281206, -4238.606004548789, -4272.357138676302, -4300.94501983464, -187500.02235174447, -183335.3335661094, 3350.7053078061713, -184183.69402691055, 0.006, 0.054, 0.98, 192.0, 0.0, 0.0, 0.0, 0.0, 0.0, 0.0, 0.0, 0.0, 0.0, 1.73888141034473E9, 0.0, 2025-02-06 17:36:50.344
24.0, -4168.801506614865, -4239.4777225825455, -4273.005339265506, -4301.749682635032, -187500.02235174447, -183335.80295274293, 3351.577025839928, -184183.93989609956, 0.006, 0.054, 0.98, 192.0, 0.0, 0.0, 0.0, 0.0, 0.0, 0.0, 0.0, 0.0, 0.0, 1.738881410348711E9, 0.0, 2025-02-06 17:36:50.348
25.0, -4169.337948481792, -4240.1259231717495, -4273.631188110255, -4302.308476246414, -187500.02235174447, -183336.09352542087, 3352.4040403847744, -184184.23046877747, 0.01, 0.058, 0.98, 192.0, 0.0, 80.0, 1.0, 208.0, 30.0, 160.0, 0.0, 0.0, 0.0, 1.738881410352739E9, 0.0, 2025-02-06 17:36:50.352
26.0, -4169.337948481792, -4240.103571427295, -4273.65353985471, -4302.241421013048, -187500.02235174447, -183335.80295274293, 3352.448743873685, -184183.80578563284, 0.01, 0.058, 0.98, 192.0, 0.0, 0.0, 0.0, 0.0, 0.0, 0.0, 0.0, 0.0, 0.0, 1.738881410356776E9, 0.0, 2025-02-06 17:36:50.356
27.0, -4169.9190938376305, -4240.640013294222, -4274.078222999361, -4302.666104157699, -187500.02235174447, -183336.13822890978, 3353.074592718434, -184183.89519261065, 0.01, 0.058, 0.98, 192.0, 0.0, 0.0, 0.0, 0.0, 0.0, 0.0, 0.0, 0.0, 0.0, 1.738881410360775E9, 0.0, 2025-02-06 17:36:50.360
28.0, -4168.9803205705075, -4239.656536538188, -4273.206504965604, -4301.749682635032, -187500.02235174447, -183334.64066203128, 3351.778191540026, -184182.33057049877, 0.01, 0.058, 0.98, 192.0, 0.0, 0.0, 0.0, 0.0, 0.0, 0.0, 0.0, 0.0, 0.0, 1.738881410365786E9, 0.0, 2025-02-06 17:36:50.365
29.0, -4167.616864158734, -4238.31543187087, -4271.910103787196, -4300.319170989892, -187500.02235174447, -183332.6290050303, 3350.0124037280566, -184180.09539605325, 0.01, 0.058, 0.98, 192.0, 0.0, 0.0, 0.0, 0.0, 0.0, 0.0, 0.0, 0.0, 0.0, 1.738881410369833E9, 0.0, 2025-02-06 17:36:50.369
30.0, -4167.169829269627, -4237.846045237308, -4271.485420642545, -4299.872136100786, -187500.02235174447, -183331.6231765298, 3349.5653688389507, -184178.91075359713, 0.01, 0.058, 0.98, 192.0, 0.0, 0.0, 0.0, 0.0, 0.0, 0.0, 0.0, 0.0, 0.0, 1.738881410372837E9, 0.0, 2025-02-06 17:36:50.372
31.0, -4166.499276935969, -4237.019030692462, -4270.747813075521, -4299.067473300394, -187500.02235174447, -183330.39383058477, 3348.6936508051936, -184177.50259369644, 0.01, 0.058, 0.98, 192.0, 0.0, 0.0, 0.0, 0.0, 0.0, 0.0, 0.0, 0.0, 0.0, 1.738881410376854E9, 0.0, 2025-02-06 17:36:50.376
32.0, -4165.53815192439, -4235.968498703062, -4269.741984575032, -4297.972237822084, -187500.02235174447, -183328.80685672842, 3347.5313600935174, -184175.84856460674, 0.01, 0.058, 0.98, 192.0, 0.0, 0.0, 0.0, 0.0, 0.0, 0.0, 0.0, 0.0, 0.0, 1.738881410380851E9, 0.0, 2025-02-06 17:36:50.380
33.0, -4164.82289610182, -4235.320298113858, -4268.982025263551, -4297.100519788328, -187500.02235174447, -183327.48810380558, 3346.681993804216, -184174.48510819496, 0.01, 0.058, 0.98, 192.0, 0.0, 0.0, 0.0, 0.0, 0.0, 0.0, 0.0, 0.0, 0.0, 1.738881410384882E9, 0.0, 2025-02-06 17:36:50.384
34.0, -4165.448744946569, -4236.080257425339, -4269.786688063942, -4297.838127355352, -187500.02235174447, -183328.09160090587, 3347.576063582428, -184174.8203843618, 0.01, 0.058, 0.98, 192.0, 0.0, 0.0, 0.0, 0.0, 0.0, 0.0, 0.0, 0.0, 0.0, 1.738881410388908E9, 0.0, 2025-02-06 17:36:50.388
35.0, -4165.091117035284, -4235.543815558412, -4269.429060152657, -4297.391092466247, -187500.02235174447, -183327.2198828721, 3347.0843252044115, -184173.79220411685, 0.01, 0.064, 0.986, 192.0, 0.0, 80.0, 2.0, 0.0, 30.0, 208.0, 0.0, 0.0, 0.0, 1.738881410392922E9, 0.0, 2025-02-06 17:36:50.392
36.0, -4166.611035658245, -4237.1307894147385, -4270.948978775618, -4299.1121767893055, -187500.02235174447, -183328.7621532395, 3348.872464760836, -184175.222715762, 0.01, 0.064, 0.986, 192.0, 0.0, 0.0, 0.0, 0.0, 0.0, 0.0, 0.0, 0.0, 0.0, 1.738881410397949E9, 0.0, 2025-02-06 17:36:50.397
37.0, -4167.706271136555, -4238.337783615325, -4272.088917742839, -4300.386226223258, -187500.02235174447, -183329.70092650663, 3350.23592117261, -184176.04973030684, 0.01, 0.064, 0.986, 192.0, 0.0, 0.0, 0.0, 0.0, 0.0, 0.0, 0.0, 0.0, 0.0, 1.738881410400961E9, 0.0, 2025-02-06 17:36:50.400
38.0, -4167.72862288101, -4238.427190593146, -4272.133621231749, -4300.4085779677125, -187500.02235174447, -183329.38800208428, 3350.258272917065, -184175.5803436733, 0.01, 0.064, 0.986, 192.0, 0.0, 0.0, 0.0, 0.0, 0.0, 0.0, 0.0, 0.0, 0.0, 1.738881410404969E9, 0.0, 2025-02-06 17:36:50.404
39.0, -4167.818029858831, -4238.583652804334, -4272.223028209571, -4300.475633201079, -187500.02235174447, -183329.2315398731, 3350.481790361618, -184175.15566052863, 0.01, 0.064, 0.986, 192.0, 0.0, 0.0, 0.0, 0.0, 0.0, 0.0, 0.0, 0.0, 0.0, 1.738881410409E9, 0.0, 2025-02-06 17:36:50.409
40.0, -4167.058070547351, -4237.801341748398, -4271.574827620367, -4299.7603773785095, -187500.02235174447, -183328.00219392803, 3349.7665345390483, -184173.83690760576, 0.01, 0.064, 0.986, 192.0, 0.0, 0.0, 0.0, 0.0, 0.0, 0.0, 0.0, 0.0, 0.0, 1.738881410413002E9, 0.0, 2025-02-06 17:36:50.413
41.0, -4165.202875757561, -4235.9014434696965, -4269.674929341666, -4297.905182588718, -187500.02235174447, -183325.25292936002, 3347.4643048601515, -184170.88647733766, 0.01, 0.064, 0.986, 192.0, 0.0, 0.0, 0.0, 0.0, 0.0, 0.0, 0.0, 0.0, 0.0, 1.73888141041704E9, 0.0, 2025-02-06 17:36:50.417
42.0, -4164.77819261291, -4235.432056836135, -4269.160839219194, -4297.368740721791, -187500.02235174447, -183324.33650783738, 3346.905511248769, -184169.79124185935, 0.01, 0.064, 0.986, 192.0, 0.0, 0.0, 0.0, 0.0, 0.0, 0.0, 0.0, 0.0, 0.0, 1.738881410421072E9, 0.0, 2025-02-06 17:36:50.421
43.0, -4165.627558902212, -4236.482588825535, -4270.278426441959, -4298.486327944556, -187500.02235174447, -183325.29763284896, 3348.134857193811, -184170.75236687093, 0.01, 0.064, 0.986, 192.0, 0.0, 0.0, 0.0, 0.0, 0.0, 0.0, 0.0, 0.0, 0.0, 1.738881410426147E9, 0.0, 2025-02-06 17:36:50.426
44.0, -4165.739317624488, -4236.437885336624, -4270.390185164236, -4298.620438411288, -187500.02235174447, -183325.0294119155, 3348.134857193811, -184170.26062849292, 0.01, 0.064, 0.986, 192.0, 0.0, 0.0, 0.0, 0.0, 0.0, 0.0, 0.0, 0.0, 0.0, 1.738881410429138E9, 0.0, 2025-02-06 17:36:50.429
45.0, -4168.019195558929, -4238.829521993342, -4272.603007865311, -4300.855612856819, -187500.02235174447, -183327.4657520611, 3350.928825250724, -184172.56285817182, 0.01, 0.06, 0.984, 192.0, 0.0, 80.0, 1.0, 224.0, 30.0, 192.0, 0.0, 0.0, 0.0, 1.738881410432138E9, 0.0, 2025-02-06 17:36:50.432
46.0, -4169.069727548329, -4239.9471092161075, -4273.564132876889, -4301.839089612852, -187500.02235174447, -183328.3151183504, 3352.135819451311, -184173.2781139944, 0.01, 0.06, 0.984, 192.0, 0.0, 0.0, 0.0, 0.0, 0.0, 0.0, 0.0, 0.0, 0.0, 1.738881410437143E9, 0.0, 2025-02-06 17:36:50.437
47.0, -4169.248541503971, -4240.170626660661, -4273.765298576987, -4302.129662290771, -187500.02235174447, -183328.20335962813, 3352.493447362596, -184173.1216517832, 0.01, 0.06, 0.984, 192.0, 0.0, 0.0, 0.0, 0.0, 0.0, 0.0, 0.0, 0.0, 0.0, 1.738881410441151E9, 0.0, 2025-02-06 17:36:50.441
48.0, -4168.645044403678, -4239.522426071457, -4273.206504965604, -4301.459109957113, -187500.02235174447, -183327.04106891647, 3351.8899502623026, -184171.91465758262, 0.01, 0.06, 0.984, 192.0, 0.0, 0.0, 0.0, 0.0, 0.0, 0.0, 0.0, 0.0, 0.0, 1.738881410445151E9, 0.0, 2025-02-06 17:36:50.445
49.0, -4166.409869958147, -4237.1307894147385, -4270.904275286707, -4299.0004180670285, -187500.02235174447, -183323.80006597046, 3349.0289269720233, -184168.6289511477, 0.01, 0.06, 0.984, 192.0, 0.0, 0.0, 0.0, 0.0, 0.0, 0.0, 0.0, 0.0, 0.0, 1.738881410449182E9, 0.0, 2025-02-06 17:36:50.449
50.0, -4165.649910646666, -4236.259071380981, -4270.054908997406, -4298.1734035221825, -187500.02235174447, -183322.43660955867, 3348.0454502159896, -184166.99727380244, 0.01, 0.06, 0.984, 192.0, 0.0, 0.0, 0.0, 0.0, 0.0, 0.0, 0.0, 0.0, 0.0, 1.738881410452196E9, 0.0, 2025-02-06 17:36:50.452
51.0, -4166.476925191513, -4237.153141159194, -4270.904275286707, -4299.067473300394, -187500.02235174447, -183323.1742171257, 3349.0512787164785, -184167.51136392492, 0.01, 0.06, 0.984, 192.0, 0.0, 0.0, 0.0, 0.0, 0.0, 0.0, 0.0, 0.0, 0.0, 1.738881410456218E9, 0.0, 2025-02-06 17:36:50.456
52.0, -4166.566332169335, -4237.197844648104, -4271.016034008984, -4299.1121767893055, -187500.02235174447, -183322.90599619222, 3349.0289269720233, -184167.0196255469, 0.01, 0.06, 0.984, 192.0, 0.0, 0.0, 0.0, 0.0, 0.0, 0.0, 0.0, 0.0, 0.0, 1.738881410460221E9, 0.0, 2025-02-06 17:36:50.460
53.0, -4167.706271136555, -4238.31543187087, -4272.066565998383, -4300.252115756526, -187500.02235174447, -183323.80006597046, 3350.2806246615205, -184167.8689918362, 0.01, 0.06, 0.984, 192.0, 0.0, 0.0, 0.0, 0.0, 0.0, 0.0, 0.0, 0.0, 0.0, 1.738881410465242E9, 0.0, 2025-02-06 17:36:50.465
54.0, -4168.846210103776, -4239.455370838091, -4273.117097987783, -4301.414406468201, -187500.02235174447, -183324.80589447092, 3351.5993775843835, -184168.85246859223, 0.01, 0.06, 0.984, 192.0, 0.0, 0.0, 0.0, 0.0, 0.0, 0.0, 0.0, 0.0, 0.0, 1.738881410469257E9, 0.0, 2025-02-06 17:36:50.469
55.0, -4169.114431037239, -4239.678888282644, -4273.407670665702, -4301.794386123942, -187500.02235174447, -183324.85059795983, 3352.068764217945, -184168.74070986995, 0.014, 0.06, 0.984, 192.0, 0.0, 112.0, 1.0, 224.0, 30.0, 192.0, 0.0, 0.0, 0.0, 1.738881410473293E9, 0.0, 2025-02-06 17:36:50.473
56.0, -4170.276721748915, -4240.952937716596, -4274.704071844109, -4303.113139046805, -187500.02235174447, -183326.0128886715, 3353.767496796548, -184169.79124185935, 0.014, 0.06, 0.984, 192.0, 0.0, 0.0, 0.0, 0.0, 0.0, 0.0, 0.0, 0.0, 0.0, 1.738881410477309E9, 0.0, 2025-02-06 17:36:50.477
57.0, -4171.707233394055, -4242.383449361736, -4276.201638722616, -4304.722464647587, -187500.02235174447, -183327.6222142723, 3355.6673950752493, -184171.08764303775, 0.014, 0.06, 0.984, 192.0, 0.0, 0.0, 0.0, 0.0, 0.0, 0.0, 0.0, 0.0, 0.0, 1.738881410480319E9, 0.0, 2025-02-06 17:36:50.480
58.0, -4169.069727548329, -4239.611833049278, -4273.474725899068, -4301.839089612852, -187500.02235174447, -183323.73301073708, 3352.2922816624978, -184167.220791247, 0.014, 0.06, 0.984, 192.0, 0.0, 0.0, 0.0, 0.0, 0.0, 0.0, 0.0, 0.0, 0.0, 1.738881410484335E9, 0.0, 2025-02-06 17:36:50.484
59.0, -4168.510933936946, -4238.985984204529, -4272.89358054323, -4301.123833790282, -187500.02235174447, -183322.63777525877, 3351.3535083953752, -184166.0137970464, 0.014, 0.06, 0.984, 192.0, 0.0, 0.0, 0.0, 0.0, 0.0, 0.0, 0.0, 0.0, 0.0, 1.738881410488358E9, 0.0, 2025-02-06 17:36:50.488
60.0, -4168.82385835932, -4239.321260371359, -4273.117097987783, -4301.369702979291, -187500.02235174447, -183322.63777525877, 3351.5323223510177, -184165.70087262403, 0.014, 0.06, 0.984, 192.0, 0.0, 0.0, 0.0, 0.0, 0.0, 0.0, 0.0, 0.0, 0.0, 1.73888141049236E9, 0.0, 2025-02-06 17:36:50.492
61.0, -4167.72862288101, -4238.203673148593, -4272.021862509473, -4300.296819245436, -187500.02235174447, -183320.89433919126, 3350.124162450333, -184163.8680295787, 0.014, 0.06, 0.984, 192.0, 0.0, 0.0, 0.0, 0.0, 0.0, 0.0, 0.0, 0.0, 0.0, 1.738881410497382E9, 0.0, 2025-02-06 17:36:50.497
62.0, -4165.716965880032, -4236.035553936428, -4269.965502019585, -4298.195755266637, -187500.02235174447, -183317.98861241207, 3347.643118815794, -184160.8728958217, 0.014, 0.06, 0.984, 192.0, 0.0, 0.0, 0.0, 0.0, 0.0, 0.0, 0.0, 0.0, 0.0, 1.738881410501416E9, 0.0, 2025-02-06 17:36:50.501
63.0, -4164.7558408684545, -4235.096780669306, -4269.0043770080065, -4297.189926766148, -187500.02235174447, -183316.4239903002, 3346.5702350819392, -184159.19651498753, 0.014, 0.06, 0.984, 192.0, 0.0, 0.0, 0.0, 0.0, 0.0, 0.0, 0.0, 0.0, 0.0, 1.738881410505446E9, 0.0, 2025-02-06 17:36:50.505
64.0, -4167.527457180912, -4238.024859192951, -4271.910103787196, -4300.118005289794, -187500.02235174447, -183319.4191240572, 3350.101810705878, -184162.0128347889, 0.014, 0.06, 0.984, 192.0, 0.0, 0.0, 0.0, 0.0, 0.0, 0.0, 0.0, 0.0, 0.0, 1.738881410508458E9, 0.0, 2025-02-06 17:36:50.508
65.0, -4165.895779835675, -4236.348478358803, -4270.166667719683, -4298.396920966736, -187500.02235174447, -183317.02748740048, 3348.134857193811, -184159.5764946433, 0.014, 0.06, 0.984, 192.0, 0.0, 0.0, 0.0, 0.0, 0.0, 0.0, 0.0, 0.0, 0.0, 1.738881410512483E9, 0.0, 2025-02-06 17:36:50.512
66.0, -4166.275759491416, -4236.750809758998, -4270.613702608789, -4298.933362833663, -187500.02235174447, -183317.2063013561, 3348.648947316283, -184159.5764946433, 0.01, 0.056, 0.988, 192.0, 0.0, 80.0, 1.0, 192.0, 30.0, 224.0, 0.0, 0.0, 0.0, 1.738881410516502E9, 0.0, 2025-02-06 17:36:50.516
67.0, -4167.460401947546, -4237.957803959585, -4271.79834506492, -4300.073301800883, -187500.02235174447, -183318.30153683445, 3349.9900519836015, -184160.40350918812, 0.01, 0.056, 0.988, 192.0, 0.0, 0.0, 0.0, 0.0, 0.0, 0.0, 0.0, 0.0, 0.0, 1.738881410520502E9, 0.0, 2025-02-06 17:36:50.520
68.0, -4166.499276935969, -4236.974327203551, -4270.770164819975, -4298.955714578118, -187500.02235174447, -183316.69221123366, 3348.7160025496487, -184158.63772137617, 0.01, 0.056, 0.988, 192.0, 0.0, 0.0, 0.0, 0.0, 0.0, 0.0, 0.0, 0.0, 0.0, 1.738881410524523E9, 0.0, 2025-02-06 17:36:50.524
69.0, -4167.192181014083, -4237.711934770577, -4271.485420642545, -4299.738025634054, -187500.02235174447, -183317.18394961167, 3349.4759618611292, -184159.0624045208, 0.01, 0.056, 0.988, 192.0, 0.0, 0.0, 0.0, 0.0, 0.0, 0.0, 0.0, 0.0, 0.0, 1.738881410529542E9, 0.0, 2025-02-06 17:36:50.529
70.0, -4167.460401947546, -4237.8907487262195, -4271.8206968093755, -4300.118005289794, -187500.02235174447, -183317.13924612277, 3349.744182794593, -184158.88359056518, 0.01, 0.056, 0.988, 192.0, 0.0, 0.0, 0.0, 0.0, 0.0, 0.0, 0.0, 0.0, 0.0, 1.738881410533613E9, 0.0, 2025-02-06 17:36:50.533
71.0, -4165.404041457658, -4235.78968474742, -4269.786688063942, -4298.016941310995, -187500.02235174447, -183314.27822283248, 3347.3972496267857, -184155.84375331923, 0.01, 0.056, 0.988, 192.0, 0.0, 0.0, 0.0, 0.0, 0.0, 0.0, 0.0, 0.0, 0.0, 1.738881410536627E9, 0.0, 2025-02-06 17:36:50.536
72.0, -4166.275759491416, -4236.750809758998, -4270.658406097699, -4299.04512155594, -187500.02235174447, -183315.12758912178, 3348.6936508051936, -184156.60371263072, 0.01, 0.056, 0.988, 192.0, 0.0, 0.0, 0.0, 0.0, 0.0, 0.0, 0.0, 0.0, 0.0, 1.73888141054059E9, 0.0, 2025-02-06 17:36:50.540
73.0, -4166.29811123587, -4236.706106270088, -4270.546647375422, -4298.955714578118, -187500.02235174447, -183314.6134989993, 3348.6936508051936, -184155.95551204152, 0.01, 0.056, 0.988, 192.0, 0.0, 0.0, 0.0, 0.0, 0.0, 0.0, 0.0, 0.0, 0.0, 1.738881410544621E9, 0.0, 2025-02-06 17:36:50.544
74.0, -4167.549808925368, -4237.957803959585, -4271.84304855383, -4300.140357034249, -187500.02235174447, -183315.75343796654, 3350.23592117261, -184156.961340542, 0.01, 0.056, 0.988, 192.0, 0.0, 0.0, 0.0, 0.0, 0.0, 0.0, 0.0, 0.0, 0.0, 1.738881410548655E9, 0.0, 2025-02-06 17:36:50.548
75.0, -4166.678090891611, -4237.086085925828, -4271.016034008984, -4299.268639000492, -187500.02235174447, -183314.38998155476, 3349.0736304609336, -184155.48612540797, 0.01, 0.056, 0.988, 192.0, 0.0, 0.0, 0.0, 0.0, 0.0, 0.0, 0.0, 0.0, 0.0, 1.738881410552659E9, 0.0, 2025-02-06 17:36:50.552
76.0, -4166.789849613887, -4237.26489988147, -4271.284254942448, -4299.603915167322, -187500.02235174447, -183314.255871088, 3349.252444416576, -184155.19555273003, 0.008, 0.058, 0.982, 192.0, 0.0, 64.0, 1.0, 208.0, 30.0, 176.0, 0.0, 0.0, 0.0, 1.738881410556674E9, 0.0, 2025-02-06 17:36:50.556
77.0, -4166.409869958147, -4236.773161503454, -4270.837220053341, -4299.1121767893055, -187500.02235174447, -183313.3170978209, 3348.7160025496487, -184154.03326201838, 0.008, 0.058, 0.982, 192.0, 0.0, 0.0, 0.0, 0.0, 0.0, 0.0, 0.0, 0.0, 0.0, 1.738881410561684E9, 0.0, 2025-02-06 17:36:50.561
78.0, -4167.058070547351, -4237.287251625926, -4271.3513101758135, -4299.670970400688, -187500.02235174447, -183313.65237398774, 3349.3865548833082, -184154.2567794629, 0.008, 0.058, 0.982, 192.0, 0.0, 0.0, 0.0, 0.0, 0.0, 0.0, 0.0, 0.0, 0.0, 1.738881410564721E9, 0.0, 2025-02-06 17:36:50.564
79.0, -4166.789849613887, -4237.019030692462, -4271.105440986806, -4299.402749467225, -187500.02235174447, -183313.00417339854, 3349.095982205389, -184153.42976491808, 0.008, 0.058, 0.982, 192.0, 0.0, 0.0, 0.0, 0.0, 0.0, 0.0, 0.0, 0.0, 0.0, 1.738881410567731E9, 0.0, 2025-02-06 17:36:50.567
80.0, -4168.577989170312, -4238.874225482253, -4272.915932287685, -4301.302647745925, -187500.02235174447, -183314.74760946605, 3351.3311566509196, -184155.19555273003, 0.008, 0.058, 0.982, 192.0, 0.0, 0.0, 0.0, 0.0, 0.0, 0.0, 0.0, 0.0, 0.0, 1.738881410572744E9, 0.0, 2025-02-06 17:36:50.572
81.0, -4166.901608336164, -4237.041382436917, -4271.0607374978945, -4299.425101211679, -187500.02235174447, -183312.2218623426, 3349.2747961610316, -184152.58039862878, 0.008, 0.058, 0.982, 192.0, 0.0, 0.0, 0.0, 0.0, 0.0, 0.0, 0.0, 0.0, 0.0, 1.738881410576761E9, 0.0, 2025-02-06 17:36:50.576
82.0, -4165.828724602309, -4235.923795214152, -4269.98785376404, -4298.329865733369, -187500.02235174447, -183310.50077801954, 3347.9783949826237, -184150.7699073279, 0.008, 0.058, 0.982, 192.0, 0.0, 0.0, 0.0, 0.0, 0.0, 0.0, 0.0, 0.0, 0.0, 1.738881410580785E9, 0.0, 2025-02-06 17:36:50.580
83.0, -4167.482753692002, -4237.711934770577, -4271.731289831554, -4300.140357034249, -187500.02235174447, -183312.24421408706, 3349.9900519836015, -184152.3121776953, 0.008, 0.058, 0.982, 192.0, 0.0, 0.0, 0.0, 0.0, 0.0, 0.0, 0.0, 0.0, 0.0, 1.738881410584795E9, 0.0, 2025-02-06 17:36:50.584
84.0, -4168.890913592686, -4239.231853393538, -4273.184153221149, -4301.637923912755, -187500.02235174447, -183313.7194292211, 3351.7334880511153, -184153.63093061818, 0.008, 0.058, 0.982, 192.0, 0.0, 0.0, 0.0, 0.0, 0.0, 0.0, 0.0, 0.0, 0.0, 1.738881410589835E9, 0.0, 2025-02-06 17:36:50.589
85.0, -4169.472058948524, -4239.723591771554, -4273.742946832532, -4302.174365779682, -187500.02235174447, -183313.9652984101, 3352.2699299180426, -184153.720337596, 0.008, 0.058, 0.982, 192.0, 0.0, 0.0, 0.0, 0.0, 0.0, 0.0, 0.0, 0.0, 0.0, 1.738881410592829E9, 0.0, 2025-02-06 17:36:50.592
86.0, -4167.974492070019, -4238.158969659683, -4272.133621231749, -4300.453281456624, -187500.02235174447, -183311.6183652423, 3350.213569428154, -184151.19459047253, 0.01, 0.052000000000000005, 0.98, 192.0, 0.0, 80.0, 1.0, 160.0, 30.0, 160.0, 0.0, 0.0, 0.0, 1.738881410595862E9, 0.0, 2025-02-06 17:36:50.595
87.0, -4167.415698458636, -4237.734286515032, -4271.641882853733, -4300.006246567517, -187500.02235174447, -183310.6125367418, 3349.7665345390483, -184149.9652445275, 0.01, 0.052000000000000005, 0.98, 192.0, 0.0, 0.0, 0.0, 0.0, 0.0, 0.0, 0.0, 0.0, 0.0, 1.738881410600877E9, 0.0, 2025-02-06 17:36:50.600
88.0, -4166.700442636066, -4237.019030692462, -4270.948978775618, -4299.2909907449475, -187500.02235174447, -183309.47259777458, 3349.0289269720233, -184148.78060207138, 0.01, 0.052000000000000005, 0.98, 192.0, 0.0, 0.0, 0.0, 0.0, 0.0, 0.0, 0.0, 0.0, 0.0, 1.738881410604917E9, 0.0, 2025-02-06 17:36:50.604
89.0, -4168.309768236848, -4238.69541152661, -4272.737118332043, -4300.967371579096, -187500.02235174447, -183311.260737331, 3351.152342695277, -184150.4122794166, 0.01, 0.052000000000000005, 0.98, 192.0, 0.0, 0.0, 0.0, 0.0, 0.0, 0.0, 0.0, 0.0, 0.0, 1.738881410608921E9, 0.0, 2025-02-06 17:36:50.608
90.0, -4167.639215903189, -4237.868396981764, -4271.887752042741, -4300.073301800883, -187500.02235174447, -183309.9196326637, 3350.0571072169673, -184148.89236079366, 0.01, 0.052000000000000005, 0.98, 192.0, 0.0, 0.0, 0.0, 0.0, 0.0, 0.0, 0.0, 0.0, 0.0, 1.738881410612947E9, 0.0, 2025-02-06 17:36:50.612
91.0, -4167.147477525172, -4237.376658603747, -4271.440717153635, -4299.626266911777, -187500.02235174447, -183308.8691006743, 3349.453610116674, -184147.73007008198, 0.01, 0.052000000000000005, 0.98, 192.0, 0.0, 0.0, 0.0, 0.0, 0.0, 0.0, 0.0, 0.0, 0.0, 1.738881410616965E9, 0.0, 2025-02-06 17:36:50.616
92.0, -4166.543980424879, -4236.639051036722, -4270.770164819975, -4298.978066322573, -187500.02235174447, -183307.59505124035, 3348.581892082917, -184146.4113171591, 0.01, 0.052000000000000005, 0.98, 192.0, 0.0, 0.0, 0.0, 0.0, 0.0, 0.0, 0.0, 0.0, 0.0, 1.738881410620968E9, 0.0, 2025-02-06 17:36:50.620
93.0, -4167.370994969725, -4237.555472559389, -4271.619531109278, -4299.80508086742, -187500.02235174447, -183308.3103070629, 3349.610072327861, -184146.88070379267, 0.01, 0.052000000000000005, 0.98, 192.0, 0.0, 0.0, 0.0, 0.0, 0.0, 0.0, 0.0, 0.0, 0.0, 1.738881410623987E9, 0.0, 2025-02-06 17:36:50.623
94.0, -4168.890913592686, -4239.03068769344, -4273.139449732238, -4301.302647745925, -187500.02235174447, -183309.87492917478, 3351.487618862107, -184148.24416020446, 0.01, 0.052000000000000005, 0.98, 192.0, 0.0, 0.0, 0.0, 0.0, 0.0, 0.0, 0.0, 0.0, 0.0, 1.738881410629026E9, 0.0, 2025-02-06 17:36:50.629
95.0, -4169.829686859809, -4240.103571427295, -4274.36879567728, -4302.576697179878, -187500.02235174447, -183310.79135069746, 3352.784020040515, -184149.13822998267, 0.01, 0.052000000000000005, 0.98, 192.0, 0.0, 0.0, 0.0, 0.0, 0.0, 0.0, 0.0, 0.0, 0.0, 1.738881410633034E9, 0.0, 2025-02-06 17:36:50.633
96.0, -4167.840381603287, -4237.98015570404, -4272.446545654124, -4300.609743667811, -187500.02235174447, -183307.93032740717, 3350.4147351282522, -184146.1207444812, 0.004, 0.05, 0.982, 192.0, 0.0, 32.0, 1.0, 144.0, 30.0, 176.0, 0.0, 0.0, 0.0, 1.738881410637073E9, 0.0, 2025-02-06 17:36:50.637
97.0, -4166.700442636066, -4236.750809758998, -4271.12779273126, -4299.402749467225, -187500.02235174447, -183306.14218785075, 3349.0065752275677, -184144.1537909691, 0.004, 0.05, 0.982, 192.0, 0.0, 0.0, 0.0, 0.0, 0.0, 0.0, 0.0, 0.0, 0.0, 1.738881410641145E9, 0.0, 2025-02-06 17:36:50.641
98.0, -4167.7509746254655, -4237.689583026121, -4271.977159020563, -4300.341522734347, -187500.02235174447, -183306.9692023956, 3350.101810705878, -184144.8690467917, 0.004, 0.05, 0.982, 192.0, 0.0, 0.0, 0.0, 0.0, 0.0, 0.0, 0.0, 0.0, 0.0, 1.73888141064515E9, 0.0, 2025-02-06 17:36:50.645
99.0, -4168.510933936946, -4238.5389493154225, -4272.89358054323, -4301.079130301372, -187500.02235174447, -183307.50564426254, 3351.0405839730006, -184145.2713781919, 0.004, 0.05, 0.982, 192.0, 0.0, 0.0, 0.0, 0.0, 0.0, 0.0, 0.0, 0.0, 0.0, 1.738881410648134E9, 0.0, 2025-02-06 17:36:50.648
100.0, -4168.913265337142, -4238.985984204529, -4273.340615432336, -4301.526165190478, -187500.02235174447, -183307.59505124035, 3351.3758601398304, -184145.2713781919, 0.004, 0.05, 0.982, 192.0, 0.0, 0.0, 0.0, 0.0, 0.0, 0.0, 0.0, 0.0, 0.0, 1.738881410652134E9, 0.0, 2025-02-06 17:36:50.652
101.0, -4168.019195558929, -4238.047210937406, -4272.334786931848, -4300.497984945534, -187500.02235174447, -183306.11983610629, 3350.1465141947883, -184143.55029386882, 0.004, 0.05, 0.982, 192.0, 0.0, 0.0, 0.0, 0.0, 0.0, 0.0, 0.0, 0.0, 0.0, 1.73888141065614E9, 0.0, 2025-02-06 17:36:50.656
102.0, -4168.242713003482, -4238.248376637504, -4272.603007865311, -4300.766205878997, -187500.02235174447, -183306.11983610629, 3350.5041421060732, -184143.4161834021, 0.004, 0.05, 0.982, 192.0, 0.0, 0.0, 0.0, 0.0, 0.0, 0.0, 0.0, 0.0, 0.0, 1.738881410661155E9, 0.0, 2025-02-06 17:36:50.661
103.0, -4168.175657770116, -4238.114266170772, -4272.446545654124, -4300.609743667811, -187500.02235174447, -183305.516339006, 3350.3476798948864, -184142.7009275795, 0.004, 0.05, 0.982, 192.0, 0.0, 0.0, 0.0, 0.0, 0.0, 0.0, 0.0, 0.0, 0.0, 1.738881410665181E9, 0.0, 2025-02-06 17:36:50.665
104.0, -4167.080422291806, -4237.041382436917, -4271.3513101758135, -4299.402749467225, -187500.02235174447, -183303.77290293848, 3349.095982205389, -184140.82338104528, 0.004, 0.05, 0.982, 192.0, 0.0, 0.0, 0.0, 0.0, 0.0, 0.0, 0.0, 0.0, 0.0, 1.738881410669189E9, 0.0, 2025-02-06 17:36:50.669
105.0, -4166.409869958147, -4236.437885336624, -4270.814868308887, -4298.776900622475, -187500.02235174447, -183302.74472269355, 3348.4477816161852, -184139.6163868447, 0.004, 0.05, 0.982, 192.0, 0.0, 0.0, 0.0, 0.0, 0.0, 0.0, 0.0, 0.0, 0.0, 1.738881410673217E9, 0.0, 2025-02-06 17:36:50.673
106.0, -4166.052242046862, -4236.080257425339, -4270.501943886512, -4298.329865733369, -187500.02235174447, -183301.87300465978, 3347.9560432381686, -184138.58820659976, 0.008, 0.058, 0.986, 192.0, 0.0, 64.0, 1.0, 208.0, 30.0, 208.0, 0.0, 0.0, 0.0, 1.738881410676248E9, 0.0, 2025-02-06 17:36:50.676
107.0, -4165.739317624488, -4235.78968474742, -4270.144315975227, -4298.0616447999055, -187500.02235174447, -183301.13539709276, 3347.576063582428, -184137.69413682155, 0.008, 0.058, 0.986, 192.0, 0.0, 0.0, 0.0, 0.0, 0.0, 0.0, 0.0, 0.0, 0.0, 1.738881410680254E9, 0.0, 2025-02-06 17:36:50.680
108.0, -4166.767497869432, -4236.639051036722, -4271.150144475716, -4299.0004180670285, -187500.02235174447, -183301.89535640425, 3348.604243827372, -184138.29763392184, 0.008, 0.058, 0.986, 192.0, 0.0, 0.0, 0.0, 0.0, 0.0, 0.0, 0.0, 0.0, 0.0, 1.738881410684276E9, 0.0, 2025-02-06 17:36:50.684
109.0, -4167.080422291806, -4237.041382436917, -4271.507772387001, -4299.358045978313, -187500.02235174447, -183301.85065291534, 3349.0736304609336, -184138.23057868847, 0.008, 0.058, 0.986, 192.0, 0.0, 0.0, 0.0, 0.0, 0.0, 0.0, 0.0, 0.0, 0.0, 1.738881410688296E9, 0.0, 2025-02-06 17:36:50.688
110.0, -4166.409869958147, -4236.259071380981, -4270.770164819975, -4298.732197133565, -187500.02235174447, -183300.64365871475, 3348.3136711494535, -184136.97888099897, 0.008, 0.058, 0.986, 192.0, 0.0, 0.0, 0.0, 0.0, 0.0, 0.0, 0.0, 0.0, 0.0, 1.738881410693304E9, 0.0, 2025-02-06 17:36:50.693
111.0, -4166.342814724781, -4236.12496091425, -4270.591350864333, -4298.598086666833, -187500.02235174447, -183300.10721684783, 3348.1125054493555, -184136.2636251764, 0.008, 0.058, 0.986, 192.0, 0.0, 0.0, 0.0, 0.0, 0.0, 0.0, 0.0, 0.0, 0.0, 1.738881410697343E9, 0.0, 2025-02-06 17:36:50.697
112.0, -4167.058070547351, -4236.750809758998, -4271.3513101758135, -4299.447452956135, -187500.02235174447, -183300.59895522584, 3349.095982205389, -184136.64360483215, 0.008, 0.058, 0.986, 192.0, 0.0, 0.0, 0.0, 0.0, 0.0, 0.0, 0.0, 0.0, 0.0, 1.738881410700328E9, 0.0, 2025-02-06 17:36:50.700
113.0, -4166.588683913789, -4236.303774869893, -4270.747813075521, -4298.843955855841, -187500.02235174447, -183299.59312672535, 3348.492485105096, -184135.59307284275, 0.008, 0.058, 0.986, 192.0, 0.0, 0.0, 0.0, 0.0, 0.0, 0.0, 0.0, 0.0, 0.0, 1.738881410704376E9, 0.0, 2025-02-06 17:36:50.704
114.0, -4166.566332169335, -4236.415533592169, -4270.725461331065, -4298.843955855841, -187500.02235174447, -183299.30255404743, 3348.5371885940062, -184135.12368620918, 0.008, 0.058, 0.986, 192.0, 0.0, 0.0, 0.0, 0.0, 0.0, 0.0, 0.0, 0.0, 0.0, 1.73888141070838E9, 0.0, 2025-02-06 17:36:50.708
115.0, -4168.220361259027, -4238.136617915227, -4272.468897398579, -4300.721502390087, -187500.02235174447, -183301.09069360385, 3350.6382525728054, -184136.7106600655, 0.008, 0.058, 0.986, 192.0, 0.0, 0.0, 0.0, 0.0, 0.0, 0.0, 0.0, 0.0, 0.0, 1.738881410712383E9, 0.0, 2025-02-06 17:36:50.712
116.0, -4169.360300226248, -4239.276556882448, -4273.6088363658, -4301.861441357308, -187500.02235174447, -183302.05181861544, 3351.867598517847, -184137.6047298437, 0.01, 0.058, 0.984, 192.0, 0.0, 80.0, 1.0, 208.0, 30.0, 192.0, 0.0, 0.0, 0.0, 1.738881410716421E9, 0.0, 2025-02-06 17:36:50.716
117.0, -4168.9803205705075, -4238.896577226707, -4273.295911943425, -4301.481461701567, -187500.02235174447, -183301.22480407057, 3351.3982118842855, -184136.7106600655, 0.01, 0.058, 0.984, 192.0, 0.0, 0.0, 0.0, 0.0, 0.0, 0.0, 0.0, 0.0, 0.0, 1.738881410721434E9, 0.0, 2025-02-06 17:36:50.721
118.0, -4168.734451381499, -4238.6507080377, -4273.139449732238, -4301.28029600147, -187500.02235174447, -183300.59895522584, 3351.152342695277, -184135.83894203175, 0.01, 0.058, 0.984, 192.0, 0.0, 0.0, 0.0, 0.0, 0.0, 0.0, 0.0, 0.0, 0.0, 1.738881410725476E9, 0.0, 2025-02-06 17:36:50.725
119.0, -4167.929788581108, -4237.756638259487, -4272.245379954026, -4300.475633201079, -187500.02235174447, -183299.23549881406, 3350.1465141947883, -184134.4084303866, 0.01, 0.058, 0.984, 192.0, 0.0, 0.0, 0.0, 0.0, 0.0, 0.0, 0.0, 0.0, 0.0, 1.738881410728471E9, 0.0, 2025-02-06 17:36:50.728
120.0, -4167.259236247449, -4237.086085925828, -4271.574827620367, -4299.715673889598, -187500.02235174447, -183298.07320810237, 3349.4312583722185, -184133.1120292082, 0.01, 0.058, 0.984, 192.0, 0.0, 0.0, 0.0, 0.0, 0.0, 0.0, 0.0, 0.0, 0.0, 1.738881410732497E9, 0.0, 2025-02-06 17:36:50.732
121.0, -4168.890913592686, -4238.807170248887, -4273.340615432336, -4301.481461701567, -187500.02235174447, -183299.77194068098, 3351.487618862107, -184134.49783736444, 0.01, 0.058, 0.984, 192.0, 0.0, 0.0, 0.0, 0.0, 0.0, 0.0, 0.0, 0.0, 0.0, 1.738881410736518E9, 0.0, 2025-02-06 17:36:50.736
122.0, -4169.740279881988, -4239.768295260465, -4274.3464439328245, -4302.509641946512, -187500.02235174447, -183300.48719650356, 3352.7616682960593, -184135.10133446474, 0.01, 0.058, 0.984, 192.0, 0.0, 0.0, 0.0, 0.0, 0.0, 0.0, 0.0, 0.0, 0.0, 1.738881410740525E9, 0.0, 2025-02-06 17:36:50.740
123.0, -4168.354471725759, -4238.3601353597805, -4272.9382840321405, -4300.94501983464, -187500.02235174447, -183298.31907729138, 3350.9511769951796, -184132.86616001918, 0.01, 0.058, 0.984, 192.0, 0.0, 0.0, 0.0, 0.0, 0.0, 0.0, 0.0, 0.0, 0.0, 1.738881410744531E9, 0.0, 2025-02-06 17:36:50.744
124.0, -4168.130954281206, -4238.114266170772, -4272.603007865311, -4300.609743667811, -187500.02235174447, -183297.73793193555, 3350.481790361618, -184132.0614972188, 0.01, 0.058, 0.984, 192.0, 0.0, 0.0, 0.0, 0.0, 0.0, 0.0, 0.0, 0.0, 0.0, 1.73888141074856E9, 0.0, 2025-02-06 17:36:50.748
125.0, -4167.795678114376, -4237.689583026121, -4272.245379954026, -4300.252115756526, -187500.02235174447, -183296.84386215734, 3350.0347554725117, -184131.12272395167, 0.01, 0.058, 0.984, 192.0, 0.0, 0.0, 0.0, 0.0, 0.0, 0.0, 0.0, 0.0, 0.0, 1.738881410752595E9, 0.0, 2025-02-06 17:36:50.752
126.0, -4168.175657770116, -4238.203673148593, -4272.670063098677, -4300.632095412266, -187500.02235174447, -183296.91091739072, 3350.6606043172605, -184131.12272395167, 0.014, 0.056, 0.982, 192.0, 0.0, 112.0, 1.0, 192.0, 30.0, 176.0, 0.0, 0.0, 0.0, 1.738881410756602E9, 0.0, 2025-02-06 17:36:50.756
127.0, -4170.053204304362, -4240.215330149571, -4274.569961377378, -4302.800214624431, -187500.02235174447, -183298.92257439168, 3353.0522409739783, -184133.02262223038, 0.014, 0.056, 0.982, 192.0, 0.0, 0.0, 0.0, 0.0, 0.0, 0.0, 0.0, 0.0, 0.0, 1.738881410759614E9, 0.0, 2025-02-06 17:36:50.759
128.0, -4168.846210103776, -4239.0083359489845, -4273.474725899068, -4301.637923912755, -187500.02235174447, -183297.24619355754, 3351.71113630666, -184131.14507569614, 0.014, 0.056, 0.982, 192.0, 0.0, 0.0, 0.0, 0.0, 0.0, 0.0, 0.0, 0.0, 0.0, 1.738881410764621E9, 0.0, 2025-02-06 17:36:50.764
129.0, -4167.34864322527, -4237.399010348202, -4271.8206968093755, -4299.9391913341515, -187500.02235174447, -183294.94396387864, 3349.7888862835034, -184128.64168031715, 0.014, 0.056, 0.982, 192.0, 0.0, 0.0, 0.0, 0.0, 0.0, 0.0, 0.0, 0.0, 0.0, 1.738881410768651E9, 0.0, 2025-02-06 17:36:50.768
130.0, -4166.521628680423, -4236.437885336624, -4270.926627031163, -4298.955714578118, -187500.02235174447, -183293.46874874458, 3348.648947316283, -184127.05470646083, 0.014, 0.056, 0.982, 192.0, 0.0, 0.0, 0.0, 0.0, 0.0, 0.0, 0.0, 0.0, 0.0, 1.738881410772671E9, 0.0, 2025-02-06 17:36:50.772
131.0, -4166.320462980326, -4236.303774869893, -4270.680757842155, -4298.8216041113865, -187500.02235174447, -183292.88760338875, 3348.358374638364, -184126.29474714934, 0.014, 0.056, 0.982, 192.0, 0.0, 0.0, 0.0, 0.0, 0.0, 0.0, 0.0, 0.0, 0.0, 1.738881410776701E9, 0.0, 2025-02-06 17:36:50.776
132.0, -4167.5721606698235, -4237.577824303845, -4271.887752042741, -4300.073301800883, -187500.02235174447, -183294.00519061153, 3349.6547758167717, -184127.211168672, 0.014, 0.056, 0.982, 192.0, 0.0, 0.0, 0.0, 0.0, 0.0, 0.0, 0.0, 0.0, 0.0, 1.738881410780711E9, 0.0, 2025-02-06 17:36:50.780
133.0, -4168.130954281206, -4238.158969659683, -4272.468897398579, -4300.676798901177, -187500.02235174447, -183294.31811503388, 3350.4370868727074, -184127.457037861, 0.014, 0.056, 0.982, 192.0, 0.0, 0.0, 0.0, 0.0, 0.0, 0.0, 0.0, 0.0, 0.0, 1.738881410784725E9, 0.0, 2025-02-06 17:36:50.784
134.0, -4168.130954281206, -4238.091914426317, -4272.379490420758, -4300.609743667811, -187500.02235174447, -183293.7146179336, 3350.3700316393415, -184126.85354076073, 0.014, 0.056, 0.982, 192.0, 0.0, 0.0, 0.0, 0.0, 0.0, 0.0, 0.0, 0.0, 0.0, 1.738881410787746E9, 0.0, 2025-02-06 17:36:50.787
135.0, -4167.907436836653, -4237.93545221513, -4272.17832472066, -4300.453281456624, -187500.02235174447, -183293.24523130004, 3350.168865939244, -184126.11593319368, 0.014, 0.056, 0.982, 192.0, 0.0, 0.0, 0.0, 0.0, 0.0, 0.0, 0.0, 0.0, 0.0, 1.738881410792761E9, 0.0, 2025-02-06 17:36:50.792
136.0, -4168.510933936946, -4238.628356293244, -4272.915932287685, -4301.28029600147, -187500.02235174447, -183293.7146179336, 3351.219397928643, -184126.6076715717, 0.014, 0.056, 0.982, 192.0, 0.0, 0.0, 0.0, 0.0, 0.0, 0.0, 0.0, 0.0, 0.0, 1.738881410796777E9, 0.0, 2025-02-06 17:36:50.796
137.0, -4169.382651970703, -4239.455370838091, -4273.787650321442, -4302.174365779682, -187500.02235174447, -183294.38517026725, 3352.2699299180426, -184127.23352041646, 0.004, 0.052000000000000005, 0.984, 192.0, 0.0, 32.0, 1.0, 160.0, 30.0, 192.0, 0.0, 0.0, 0.0, 1.738881410800802E9, 0.0, 2025-02-06 17:36:50.800
138.0, -4168.756803125954, -4238.829521993342, -4273.251208454515, -4301.459109957113, -187500.02235174447, -183293.26758304448, 3351.487618862107, -184125.91476749358, 0.004, 0.052000000000000005, 0.984, 192.0, 0.0, 0.0, 0.0, 0.0, 0.0, 0.0, 0.0, 0.0, 0.0, 1.738881410804832E9, 0.0, 2025-02-06 17:36:50.804
139.0, -4168.846210103776, -4238.985984204529, -4273.340615432336, -4301.548516934934, -187500.02235174447, -183293.11112083332, 3351.5993775843835, -184125.46773260448, 0.004, 0.052000000000000005, 0.984, 192.0, 0.0, 0.0, 0.0, 0.0, 0.0, 0.0, 0.0, 0.0, 0.0, 1.73888141080885E9, 0.0, 2025-02-06 17:36:50.808
140.0, -4169.852038604265, -4240.081219682839, -4274.32409218837, -4302.643752413243, -187500.02235174447, -183294.02754235597, 3352.6722613182383, -184126.20534017152, 0.004, 0.052000000000000005, 0.984, 192.0, 0.0, 0.0, 0.0, 0.0, 0.0, 0.0, 0.0, 0.0, 0.0, 1.738881410811867E9, 0.0, 2025-02-06 17:36:50.811
141.0, -4169.963797326541, -4240.215330149571, -4274.458202655102, -4302.800214624431, -187500.02235174447, -183293.7146179336, 3352.8510752738807, -184125.91476749358, 0.004, 0.052000000000000005, 0.984, 192.0, 0.0, 0.0, 0.0, 0.0, 0.0, 0.0, 0.0, 0.0, 0.0, 1.738881410815893E9, 0.0, 2025-02-06 17:36:50.815
142.0, -4169.1591345261495, -4239.433019093635, -4273.742946832532, -4302.062607057405, -187500.02235174447, -183292.30645803292, 3351.845246773392, -184124.37249712617, 0.004, 0.052000000000000005, 0.984, 192.0, 0.0, 0.0, 0.0, 0.0, 0.0, 0.0, 0.0, 0.0, 0.0, 1.738881410819924E9, 0.0, 2025-02-06 17:36:50.819
143.0, -4168.376823470214, -4238.606004548789, -4272.915932287685, -4301.123833790282, -187500.02235174447, -183290.89829813223, 3350.861770017358, -184122.91963373657, 0.004, 0.052000000000000005, 0.984, 192.0, 0.0, 0.0, 0.0, 0.0, 0.0, 0.0, 0.0, 0.0, 0.0, 1.738881410824928E9, 0.0, 2025-02-06 17:36:50.824
144.0, -4166.678090891611, -4236.795513247909, -4271.0607374978945, -4299.223935511582, -187500.02235174447, -183288.37255100877, 3348.872464760836, -184120.28212789085, 0.004, 0.052000000000000005, 0.984, 192.0, 0.0, 0.0, 0.0, 0.0, 0.0, 0.0, 0.0, 0.0, 0.0, 1.738881410828926E9, 0.0, 2025-02-06 17:36:50.828
145.0, -4165.426393202114, -4235.521463813957, -4269.65257759721, -4297.771072121986, -187500.02235174447, -183286.49500447453, 3347.285490904509, -184118.06930518977, 0.004, 0.052000000000000005, 0.984, 192.0, 0.0, 0.0, 0.0, 0.0, 0.0, 0.0, 0.0, 0.0, 0.0, 1.738881410832958E9, 0.0, 2025-02-06 17:36:50.832
146.0, -4165.292282735381, -4235.454408580591, -4269.563170619389, -4297.704016888621, -187500.02235174447, -183286.02561784096, 3347.196083926688, -184117.53286332285, 0.004, 0.052000000000000005, 0.984, 192.0, 0.0, 0.0, 0.0, 0.0, 0.0, 0.0, 0.0, 0.0, 0.0, 1.738881410837021E9, 0.0, 2025-02-06 17:36:50.837
147.0, -4165.560503668846, -4235.700277769599, -4269.786688063942, -4297.949886077629, -187500.02235174447, -183285.93621086315, 3347.5313600935174, -184117.33169762275, 0.004, 0.054, 0.978, 192.0, 0.0, 32.0, 1.0, 176.0, 30.0, 144.0, 0.0, 0.0, 0.0, 1.738881410840055E9, 0.0, 2025-02-06 17:36:50.840
148.0, -4165.784021113399, -4236.080257425339, -4270.189019464137, -4298.3522174778245, -187500.02235174447, -183285.95856260762, 3347.8219327714364, -184117.13053192265, 0.004, 0.054, 0.978, 192.0, 0.0, 0.0, 0.0, 0.0, 0.0, 0.0, 0.0, 0.0, 0.0, 1.738881410844017E9, 0.0, 2025-02-06 17:36:50.844
149.0, -4164.644082146177, -4234.739152758021, -4269.026728752462, -4297.055816299417, -187500.02235174447, -183284.12571956226, 3346.391421126297, -184115.14122666614, 0.004, 0.054, 0.978, 192.0, 0.0, 0.0, 0.0, 0.0, 0.0, 0.0, 0.0, 0.0, 0.0, 1.738881410848055E9, 0.0, 2025-02-06 17:36:50.848
150.0, -4164.06293679034, -4234.247414380004, -4268.423231652168, -4296.340560476847, -187500.02235174447, -183282.98578059505, 3345.6314618148162, -184114.11304642117, 0.004, 0.054, 0.978, 192.0, 0.0, 0.0, 0.0, 0.0, 0.0, 0.0, 0.0, 0.0, 0.0, 1.738881410852068E9, 0.0, 2025-02-06 17:36:50.852
