%OpenBCI Raw EXG Data
%Number of channels = 8
%Sample Rate = 250 Hz
%Board = OpenBCI_GUI$BoardCytonSerial
Sample Index, EXG Channel 0, EXG Channel 1, EXG Channel 2, EXG Channel 3, EXG Channel 4, EXG Channel 5, EXG Channel 6, EXG Channel 7, Accel Channel 0, Accel Channel 1, Accel Channel 2, Not Used, Digital Channel 0 (D11), Digital Channel 1 (D12), Digital Channel 2 (D13), Digital Channel 3 (D17), Not Used, Digital Channel 4 (D18), Analog Channel 0, Analog Channel 1, Analog Channel 2, Timestamp, Marker Channel, Timestamp (Formatted)
228.0, -65235.1978701589, -94613.34730545848, -186663.03892887104, -186888.5680304251, -187309.5184337519, -64080.372641131005, -47591.87073610673, -164930.437794976, 0.0, 0.0, 0.0, 192.0, 0.0, 0.0, 0.0, 0.0, 0.0, 0.0, 0.0, 0.0, 0.0, 1.738881428680777E9, 0.0, 2025-02-06 17:37:08.680
229.0, -65280.90718757, -94641.95753836127, -186574.7495382726, -187018.02933431024, -187400.6911993851, -64149.439531497905, -47744.57785422538, -165065.12940706365, 0.0, 0.0, 0.0, 192.0, 0.0, 0.0, 0.0, 0.0, 0.0, 0.0, 0.0, 0.0, 0.0, 1.738881428680815E9, 0.0, 2025-02-06 17:37:08.680
230.0, -65319.84392641115, -94663.07993687152, -186632.7523151341, -187127.48582690785, -187488.91353475017, -64211.3538636391, -47891.2052978522, -165193.85310338179, 0.0, 0.0, 0.0, 192.0, 0.0, 0.0, 0.0, 0.0, 0.0, 0.0, 0.0, 0.0, 0.0, 1.738881428680839E9, 0.0, 2025-02-06 17:37:08.680
0.0, 0.0, 0.0, 0.0, 0.0, 0.0, 0.0, 0.0, 0.0, 0.014, 0.064, 0.984, 192.0, 0.0, 112.0, 2.0, 0.0, 30.0, 192.0, 0.0, 0.0, 0.0, 1.738881428768483E9, 0.0, 2025-02-06 17:37:08.768
1.0, -108729.74797841883, -129180.70008524659, -183953.33694855418, -186399.55656523188, -184685.2448207432, -127529.8002397776, -153794.77635559754, -184781.53613585664, 0.014, 0.064, 0.984, 192.0, 0.0, 0.0, 0.0, 0.0, 0.0, 0.0, 0.0, 0.0, 0.0, 1.73888142878557E9, 0.0, 2025-02-06 17:37:08.785
2.0, -108814.0364067598, -129252.89621983722, -183894.08247400314, -186335.5858726008, -184933.68446036393, -127633.3782235835, -153994.10921265, -184718.9065478929, 0.014, 0.064, 0.984, 192.0, 0.0, 0.0, 0.0, 0.0, 0.0, 0.0, 0.0, 0.0, 0.0, 1.73888142878859E9, 0.0, 2025-02-06 17:37:08.788
3.0, -108905.81266949329, -129328.24395039606, -183851.81532523816, -186276.15258409412, -185265.40669982514, -127755.77637622076, -154197.37597672653, -184660.14381171987, 0.014, 0.064, 0.984, 192.0, 0.0, 0.0, 0.0, 0.0, 0.0, 0.0, 0.0, 0.0, 0.0, 1.738881428791594E9, 0.0, 2025-02-06 17:37:08.791
4.0, -108996.73956593747, -129403.68108793272, -183934.2038553004, -186215.4452461535, -185258.36590032172, -127886.86935745113, -154401.22388615893, -184600.12937785737, 0.014, 0.064, 0.984, 192.0, 0.0, 0.0, 0.0, 0.0, 0.0, 0.0, 0.0, 0.0, 0.0, 1.738881428796608E9, 0.0, 2025-02-06 17:37:08.796
5.0, -109095.93660783012, -129486.33783892845, -183930.24759653184, -186163.3433298282, -185210.6225741652, -128024.73491725147, -154614.1466038402, -184549.32386271047, 0.014, 0.064, 0.984, 192.0, 0.0, 0.0, 0.0, 0.0, 0.0, 0.0, 0.0, 0.0, 0.0, 1.738881428799614E9, 0.0, 2025-02-06 17:37:08.799
6.0, -109195.11129797832, -129569.9333631913, -183875.3070086607, -186111.84491060316, -185163.68391080905, -128162.64518054071, -154827.2481354771, -184498.9430307082, 0.014, 0.064, 0.984, 192.0, 0.0, 0.0, 0.0, 0.0, 0.0, 0.0, 0.0, 0.0, 0.0, 1.73888142880365E9, 0.0, 2025-02-06 17:37:08.803
7.0, -109290.26267412456, -129650.04201531912, -183843.41106932296, -186055.94319772045, -185112.65487821758, -128297.7391240286, -155037.53334731262, -184444.56123644844, 0.014, 0.064, 0.984, 192.0, 0.0, 0.0, 0.0, 0.0, 0.0, 0.0, 0.0, 0.0, 0.0, 1.738881428807658E9, 0.0, 2025-02-06 17:37:08.807
8.0, -109379.89316939034, -129725.07682145559, -183930.9181488655, -185995.43702547994, -185057.11079324613, -128427.73686978065, -155241.2024427894, -184385.99966597554, 0.012, 0.062, 0.982, 192.0, 0.0, 96.0, 1.0, 240.0, 30.0, 176.0, 0.0, 0.0, 0.0, 1.738881428811679E9, 0.0, 2025-02-06 17:37:08.811
9.0, -109474.70926936976, -129806.7947991842, -183917.23888125885, -185940.96582424233, -185007.37816183307, -128564.44013886931, -155451.62176509164, -184333.00367987202, 0.012, 0.062, 0.982, 192.0, 0.0, 0.0, 0.0, 0.0, 0.0, 0.0, 0.0, 0.0, 0.0, 1.738881428815702E9, 0.0, 2025-02-06 17:37:08.815
10.0, -109573.0122414842, -129891.10557926961, -183861.4936305873, -185888.79685268365, -184960.66301592148, -128703.6244515925, -155663.20337810557, -184282.242868214, 0.012, 0.062, 0.982, 192.0, 0.0, 0.0, 0.0, 0.0, 0.0, 0.0, 0.0, 0.0, 0.0, 1.738881428819748E9, 0.0, 2025-02-06 17:37:08.819
11.0, -109667.06838215214, -129972.06359768673, -183822.91451965744, -185834.0127270237, -184911.42212288643, -128837.60080785761, -155870.35934571736, -184228.59868152128, 0.012, 0.062, 0.982, 192.0, 0.0, 0.0, 0.0, 0.0, 0.0, 0.0, 0.0, 0.0, 0.0, 1.738881428824741E9, 0.0, 2025-02-06 17:37:08.824
12.0, -109755.08955181713, -130046.20433404499, -183909.41577069947, -185772.99246466073, -184854.894561159, -128966.72683557593, -156071.70385977076, -184146.9701107705, 0.012, 0.062, 0.982, 192.0, 0.0, 0.0, 0.0, 0.0, 0.0, 0.0, 0.0, 0.0, 0.0, 1.738881428827746E9, 0.0, 2025-02-06 17:37:08.827
13.0, -109848.11751224012, -130125.28480592786, -183904.83366308614, -185715.14615001038, -184802.01033377773, -129099.18327321808, -156272.46722846833, -183919.13877953755, 0.012, 0.062, 0.982, 192.0, 0.0, 0.0, 0.0, 0.0, 0.0, 0.0, 0.0, 0.0, 0.0, 1.738881428830851E9, 0.0, 2025-02-06 17:37:08.830
14.0, -109931.22129812495, -130193.61408872773, -183835.05151689667, -185649.5661317785, -184741.61592025947, -129221.51437062197, -156454.18691088998, -183916.27775624726, 0.012, 0.062, 0.982, 192.0, 0.0, 0.0, 0.0, 0.0, 0.0, 0.0, 0.0, 0.0, 0.0, 1.738881428835848E9, 0.0, 2025-02-06 17:37:08.835
15.0, -110006.2114007725, -130252.08625222281, -183821.46165626784, -185577.48175591015, -184673.71132060426, -129333.76483127652, -156623.85900305022, -184066.57088596476, 0.012, 0.062, 0.982, 192.0, 0.0, 0.0, 0.0, 0.0, 0.0, 0.0, 0.0, 0.0, 0.0, 1.738881428840851E9, 0.0, 2025-02-06 17:37:08.840
16.0, -110079.30160514136, -130310.37960176225, -183903.85018633012, -185504.25744107456, -184604.21974709272, -129443.86952446337, -156792.2123422876, -184214.4723790255, 0.012, 0.062, 0.982, 192.0, 0.0, 0.0, 0.0, 0.0, 0.0, 0.0, 0.0, 0.0, 0.0, 1.738881428843837E9, 0.0, 2025-02-06 17:37:08.843
17.0, -110159.58907122482, -130375.35612289383, -183856.10686017358, -185437.69394608666, -184541.07606900646, -129561.55145902056, -156970.82513222995, -184449.4339167397, 0.012, 0.062, 0.982, 192.0, 0.0, 0.0, 0.0, 0.0, 0.0, 0.0, 0.0, 0.0, 0.0, 1.738881428847847E9, 0.0, 2025-02-06 17:37:08.847
18.0, -110249.44308393516, -130449.20628657418, -183796.5841646891, -185377.9477331576, -184486.4484055577, -129687.74940821523, -157165.82175085804, -184749.43903081884, 0.014, 0.062, 0.982, 192.0, 0.0, 112.0, 1.0, 240.0, 30.0, 176.0, 0.0, 0.0, 0.0, 1.738881428851872E9, 0.0, 2025-02-06 17:37:08.851
19.0, -110338.80535826748, -130524.68812759974, -183857.15739216298, -185318.3356306953, -184431.59722466438, -129816.16018011096, -157367.32272712264, -184742.06295514858, 0.014, 0.062, 0.982, 192.0, 0.0, 0.0, 0.0, 0.0, 0.0, 0.0, 0.0, 0.0, 0.0, 1.73888142885587E9, 0.0, 2025-02-06 17:37:08.855
20.0, -110434.5155280251, -130606.24964311716, -183887.3545989221, -185264.51263004693, -184376.9695612156, -129951.7235102324, -157576.93738662452, -184688.61993415595, 0.014, 0.062, 0.982, 192.0, 0.0, 0.0, 0.0, 0.0, 0.0, 0.0, 0.0, 0.0, 0.0, 1.738881428859933E9, 0.0, 2025-02-06 17:37:08.859
21.0, -110532.77379665062, -130689.73340865773, -183834.4480197964, -185212.03073406586, -184156.89428530863, -130086.63863976463, -157789.03308976092, -184636.49566608618, 0.014, 0.062, 0.982, 192.0, 0.0, 0.0, 0.0, 0.0, 0.0, 0.0, 0.0, 0.0, 0.0, 1.738881428863905E9, 0.0, 2025-02-06 17:37:08.863
22.0, -110620.34793142653, -130761.37074963699, -183774.12066151152, -185150.38462285814, -183976.53805929876, -130195.46928351752, -157988.81298170245, -184574.78249964508, 0.014, 0.062, 0.982, 192.0, 0.0, 0.0, 0.0, 0.0, 0.0, 0.0, 0.0, 0.0, 0.0, 1.738881428867924E9, 0.0, 2025-02-06 17:37:08.867
23.0, -110695.98623466329, -130820.66992767692, -183831.9446244174, -185077.92026733403, -184082.7982524393, -130287.58082241785, -158175.89708279338, -184503.18986215472, 0.014, 0.062, 0.982, 192.0, 0.0, 0.0, 0.0, 0.0, 0.0, 0.0, 0.0, 0.0, 0.0, 1.738881428870953E9, 0.0, 2025-02-06 17:37:08.870
24.0, -110777.27952924723, -130886.92049824244, -183856.30802587367, -185010.79797873474, -184213.10892261376, -130382.3745706528, -158369.50789326525, -184436.31344274443, 0.014, 0.062, 0.982, 192.0, 0.0, 0.0, 0.0, 0.0, 0.0, 0.0, 0.0, 0.0, 0.0, 1.738881428874952E9, 0.0, 2025-02-06 17:37:08.874
25.0, -110860.24920466534, -130956.50147873182, -183788.5822401741, -184945.73205062535, -184345.09597362234, -130478.95645844418, -158564.39275317107, -184371.49338382404, 0.014, 0.062, 0.982, 192.0, 0.0, 0.0, 0.0, 0.0, 0.0, 0.0, 0.0, 0.0, 0.0, 1.738881428879971E9, 0.0, 2025-02-06 17:37:08.879
26.0, -110938.56971723674, -131018.30405215074, -183780.46855693683, -184875.94990443587, -184469.86341117186, -130571.76090142262, -158754.76256069692, -184300.995981812, 0.014, 0.062, 0.982, 192.0, 0.0, 0.0, 0.0, 0.0, 0.0, 0.0, 0.0, 0.0, 0.0, 1.738881428884006E9, 0.0, 2025-02-06 17:37:08.884
27.0, -111017.18080248605, -131080.44190173649, -183841.91350244445, -184806.74890360225, -184598.81062493453, -130665.25824847916, -158946.69699033463, -184231.61616702273, 0.014, 0.062, 0.982, 192.0, 0.0, 0.0, 0.0, 0.0, 0.0, 0.0, 0.0, 0.0, 0.0, 1.738881428888024E9, 0.0, 2025-02-06 17:37:08.888
28.0, -111104.79964075085, -131152.01218748238, -183792.06911230914, -184745.37101332797, -184891.46201508786, -130771.09375847505, -159145.13577760887, -184171.3335122268, 0.012, 0.062, 0.982, 192.0, 0.0, 96.0, 1.0, 240.0, 30.0, 176.0, 0.0, 0.0, 0.0, 1.738881428892043E9, 0.0, 2025-02-06 17:37:08.892
29.0, -111198.20758082958, -131231.40558378765, -183750.9195507669, -184689.67046614536, -185177.07260573778, -130897.89520477, -159349.69894286382, -184111.72140976446, 0.012, 0.062, 0.982, 192.0, 0.0, 0.0, 0.0, 0.0, 0.0, 0.0, 0.0, 0.0, 0.0, 1.738881428895051E9, 0.0, 2025-02-06 17:37:08.895
30.0, -111284.35120396034, -131304.7863608344, -183823.7415342023, -184628.6278520379, -185145.1990181445, -131025.12133420962, -159545.1649481255, -183913.32732597916, 0.012, 0.062, 0.982, 192.0, 0.0, 0.0, 0.0, 0.0, 0.0, 0.0, 0.0, 0.0, 0.0, 1.738881428899106E9, 0.0, 2025-02-06 17:37:08.899
31.0, -111366.27034738903, -131372.89212618972, -183806.4859874828, -184564.74656638462, -185084.82695637073, -131147.87711475816, -159727.48812764743, -183808.20707180587, 0.012, 0.062, 0.982, 192.0, 0.0, 0.0, 0.0, 0.0, 0.0, 0.0, 0.0, 0.0, 0.0, 1.738881428903092E9, 0.0, 2025-02-06 17:37:08.903
32.0, -111443.83090064894, -131435.54406589796, -183738.73785003877, -184497.02078068507, -185020.02924919478, -131265.491994082, -159900.6023884538, -183949.6265589746, 0.012, 0.062, 0.982, 192.0, 0.0, 0.0, 0.0, 0.0, 0.0, 0.0, 0.0, 0.0, 0.0, 1.738881428907133E9, 0.0, 2025-02-06 17:37:08.907
33.0, -111512.22723868219, -131489.65763922426, -183792.44909196487, -184422.2765472265, -184947.76605937077, -131373.003884912, -160065.24533811156, -184094.5552700228, 0.012, 0.062, 0.982, 192.0, 0.0, 0.0, 0.0, 0.0, 0.0, 0.0, 0.0, 0.0, 0.0, 1.738881428912131E9, 0.0, 2025-02-06 17:37:08.912
34.0, -111588.35728029696, -131551.66137834327, -183819.71822020033, -184353.52258128198, -184882.387206839, -131488.36123804585, -160237.2643634396, -184273.81626055436, 0.012, 0.062, 0.982, 192.0, 0.0, 0.0, 0.0, 0.0, 0.0, 0.0, 0.0, 0.0, 0.0, 1.73888142891617E9, 0.0, 2025-02-06 17:37:08.916
35.0, -111676.31139472859, -131624.97510015668, -183758.5191438817, -184293.9104788197, -184826.55254918966, -131614.3133180515, -160426.58363897607, -184608.35481981694, 0.012, 0.062, 0.982, 192.0, 0.0, 0.0, 0.0, 0.0, 0.0, 0.0, 0.0, 0.0, 0.0, 1.738881428920203E9, 0.0, 2025-02-06 17:37:08.920
36.0, -111769.69698306287, -131704.12262727294, -183725.32680336558, -184238.8357804818, -184775.07648170908, -131747.17208709384, -160630.11862398608, -184695.7948441261, 0.012, 0.062, 0.982, 192.0, 0.0, 0.0, 0.0, 0.0, 0.0, 0.0, 0.0, 0.0, 0.0, 1.738881428923185E9, 0.0, 2025-02-06 17:37:08.923
37.0, -111860.71328648488, -131780.0962066765, -183805.25664153777, -184181.41414897612, -184721.56640548306, -131877.95214390184, -160832.89364968464, -184639.46844809872, 0.012, 0.062, 0.982, 192.0, 0.0, 0.0, 0.0, 0.0, 0.0, 0.0, 0.0, 0.0, 0.0, 1.738881428927217E9, 0.0, 2025-02-06 17:37:08.927
38.0, -111958.25629928784, -131862.26121929422, -183789.78923437468, -184130.07219196227, -184674.00189328217, -132014.3648403126, -161042.93299233116, -184588.2158980627, 0.012, 0.058, 0.982, 192.0, 0.0, 96.0, 1.0, 208.0, 30.0, 176.0, 0.0, 0.0, 0.0, 1.738881428931207E9, 0.0, 2025-02-06 17:37:08.931
39.0, -112057.43098943603, -131946.97433077983, -183734.5133703367, -184079.1549180931, -184626.571491548, -132150.6881297455, -161254.2016809227, -184537.54449338253, 0.012, 0.058, 0.982, 192.0, 0.0, 0.0, 0.0, 0.0, 0.0, 0.0, 0.0, 0.0, 0.0, 1.738881428935221E9, 0.0, 2025-02-06 17:37:08.935
40.0, -112152.15768243762, -132025.45130556243, -183710.48524504725, -184023.8343505662, -184574.7154444117, -132282.965753432, -161459.83772991155, -184481.75453922208, 0.012, 0.058, 0.982, 192.0, 0.0, 0.0, 0.0, 0.0, 0.0, 0.0, 0.0, 0.0, 0.0, 1.738881428939275E9, 0.0, 2025-02-06 17:37:08.939
41.0, -112240.98351490301, -132100.26259425434, -183792.69496115387, -183964.177544615, -184518.94784199572, -132412.06942940588, -161661.36105792059, -184421.4718844261, 0.012, 0.058, 0.982, 192.0, 0.0, 0.0, 0.0, 0.0, 0.0, 0.0, 0.0, 0.0, 0.0, 1.73888142894428E9, 0.0, 2025-02-06 17:37:08.944
42.0, -112338.2136032836, -132183.67930456155, -183770.32086495412, -183912.65677364552, -184472.32210306195, -132548.2809601165, -161871.3556970782, -184369.5711338009, 0.012, 0.058, 0.982, 192.0, 0.0, 0.0, 0.0, 0.0, 0.0, 0.0, 0.0, 0.0, 0.0, 1.738881428948297E9, 0.0, 2025-02-06 17:37:08.948
43.0, -112437.54475564299, -132267.4759945245, -183714.5085590492, -183861.98536896534, -184426.031640295, -132686.4147408503, -162082.1997025251, -184318.94443260963, 0.012, 0.058, 0.982, 192.0, 0.0, 0.0, 0.0, 0.0, 0.0, 0.0, 0.0, 0.0, 0.0, 1.738881428951299E9, 0.0, 2025-02-06 17:37:08.951
44.0, -112532.71848353368, -132345.9306175626, -183707.78068396816, -183805.90484212697, -184374.4661658366, -132819.31821338157, -162287.27695790256, -184262.57333309334, 0.012, 0.058, 0.982, 192.0, 0.0, 0.0, 0.0, 0.0, 0.0, 0.0, 0.0, 0.0, 0.0, 1.73888142895532E9, 0.0, 2025-02-06 17:37:08.955
45.0, -112629.30037132507, -132424.1170196673, -183792.60555417606, -183752.05948973412, -184324.24179604554, -132952.06522370162, -162493.2482830582, -184206.2692888104, 0.012, 0.058, 0.982, 192.0, 0.0, 0.0, 0.0, 0.0, 0.0, 0.0, 0.0, 0.0, 0.0, 1.738881428959338E9, 0.0, 2025-02-06 17:37:08.959
46.0, -112732.54307896413, -132510.81943640942, -183762.6765683504, -183703.89148043294, -184278.10779548978, -133091.94244050296, -162707.46740191788, -184156.29078820837, 0.012, 0.058, 0.982, 192.0, 0.0, 0.0, 0.0, 0.0, 0.0, 0.0, 0.0, 0.0, 0.0, 1.738881428963393E9, 0.0, 2025-02-06 17:37:08.963
47.0, -112831.06956852312, -132595.06316126147, -183707.35600082352, -183653.15302051938, -184082.73119720593, -133226.25407293488, -162917.3502823532, -184105.462921317, 0.012, 0.058, 0.982, 192.0, 0.0, 0.0, 0.0, 0.0, 0.0, 0.0, 0.0, 0.0, 0.0, 1.738881428967363E9, 0.0, 2025-02-06 17:37:08.967
48.0, -112914.66509278597, -132665.49350804015, -183692.53679424964, -183589.74112149968, -183866.2992556452, -133330.7708300079, -163110.98344456955, -184025.935414545, 0.012, 0.056, 0.986, 192.0, 0.0, 96.0, 1.0, 192.0, 30.0, 208.0, 0.0, 0.0, 0.0, 1.738881428972384E9, 0.0, 2025-02-06 17:37:08.972
49.0, -112985.94480585394, -132724.70327910225, -183757.60272235904, -183517.1650072533, -183956.75676545582, -133417.51795023895, -163289.52917927853, -183785.90003083946, 0.012, 0.056, 0.986, 192.0, 0.0, 0.0, 0.0, 0.0, 0.0, 0.0, 0.0, 0.0, 0.0, 1.738881428976415E9, 0.0, 2025-02-06 17:37:08.976
50.0, -113054.60936482064, -132780.13560535142, -183699.01880014167, -183418.43735199422, -184073.61168546817, -133501.3146402019, -163456.78728303759, -183746.9185885094, 0.012, 0.056, 0.986, 192.0, 0.0, 0.0, 0.0, 0.0, 0.0, 0.0, 0.0, 0.0, 0.0, 1.738881428979422E9, 0.0, 2025-02-06 17:37:08.979
51.0, -113113.61797018266, -132825.01790821768, -183641.23954072472, -182660.04266262564, -184181.0788728093, -133575.38832132678, -163612.19896223533, -183881.27492443027, 0.012, 0.056, 0.986, 192.0, 0.0, 0.0, 0.0, 0.0, 0.0, 0.0, 0.0, 0.0, 0.0, 1.738881428983431E9, 0.0, 2025-02-06 17:37:08.983
52.0, -113156.75683698141, -132853.359920187, -183723.00222194224, -181937.96955799696, -184272.40810065367, -133634.95572030018, -163750.2433359913, -184003.0248764783, 0.012, 0.056, 0.986, 192.0, 0.0, 0.0, 0.0, 0.0, 0.0, 0.0, 0.0, 0.0, 0.0, 1.738881428987468E9, 0.0, 2025-02-06 17:37:08.987
53.0, -113203.53903812636, -132884.49590021325, -183692.8050151831, -182035.64668126663, -184366.30777911042, -133697.33943907495, -163893.76388713883, -184129.84867451774, 0.012, 0.056, 0.986, 192.0, 0.0, 0.0, 0.0, 0.0, 0.0, 0.0, 0.0, 0.0, 0.0, 1.738881428991478E9, 0.0, 2025-02-06 17:37:08.991
54.0, -113246.56614620282, -132913.19554009385, -183645.53107566014, -182168.28193286443, -184458.48637324412, -133757.80090782655, -164035.0716155853, -184356.45065980562, 0.012, 0.056, 0.986, 192.0, 0.0, 0.0, 0.0, 0.0, 0.0, 0.0, 0.0, 0.0, 0.0, 1.738881428995495E9, 0.0, 2025-02-06 17:37:08.995
55.0, -113299.51742881745, -132950.2323806563, -183712.60866077052, -182306.05808568693, -184608.6230407504, -133826.75603947116, -164192.20437910612, -184590.58518297496, 0.012, 0.056, 0.986, 192.0, 0.0, 0.0, 0.0, 0.0, 0.0, 0.0, 0.0, 0.0, 0.0, 1.738881428999502E9, 0.0, 2025-02-06 17:37:08.999
56.0, -113368.74078139554, -133002.87073884855, -183657.8915903439, -182468.04117775455, -184966.1615450575, -133920.856883628, -164372.3594394159, -184544.8088103305, 0.012, 0.056, 0.986, 192.0, 0.0, 0.0, 0.0, 0.0, 0.0, 0.0, 0.0, 0.0, 0.0, 1.738881429004539E9, 0.0, 2025-02-06 17:37:09.004
57.0, -113437.96413397363, -133057.2078296194, -183641.95479654727, -182625.1515895309, -185024.79017076376, -134029.24049249178, -164553.52032822615, -184467.60588498187, 0.012, 0.056, 0.986, 192.0, 0.0, 0.0, 0.0, 0.0, 0.0, 0.0, 0.0, 0.0, 0.0, 1.738881429007522E9, 0.0, 2025-02-06 17:37:09.007
58.0, -113509.02032959704, -133112.70721110192, -183714.0615241601, -182781.21146931787, -184952.37051872857, -134141.93798803544, -164734.6365135475, -184391.74406430055, 0.012, 0.056, 0.986, 192.0, 0.0, 0.0, 0.0, 0.0, 0.0, 0.0, 0.0, 0.0, 0.0, 1.738881429011555E9, 0.0, 2025-02-06 17:37:09.011
59.0, -113585.64210958984, -133174.50978452084, -183659.3891572224, -182950.97296845593, -184885.27058187374, -134259.0387772368, -164922.25705650533, -184320.62081344376, 0.016, 0.058, 0.99, 192.0, 0.0, 128.0, 1.0, 208.0, 30.0, 240.0, 0.0, 0.0, 0.0, 1.7388814290156E9, 0.0, 2025-02-06 17:37:09.015
60.0, -113659.35816280344, -133234.3007009388, -183606.0802466965, -183113.6713163461, -184816.18133976238, -134373.63617105916, -165108.6706052626, -184247.6870712861, 0.016, 0.058, 0.99, 192.0, 0.0, 0.0, 0.0, 0.0, 0.0, 0.0, 0.0, 0.0, 0.0, 1.738881429019597E9, 0.0, 2025-02-06 17:37:09.019
61.0, -113731.599000883, -133291.0517801108, -183684.7136836903, -183265.4173094532, -184745.7062894948, -134485.93133520262, -165290.90437780673, -184173.09930003874, 0.016, 0.058, 0.99, 192.0, 0.0, 0.0, 0.0, 0.0, 0.0, 0.0, 0.0, 0.0, 0.0, 1.738881429023599E9, 0.0, 2025-02-06 17:37:09.023
62.0, -113809.24896112073, -133353.10022271876, -183664.32889274706, -183432.96598589016, -184677.82404158404, -134599.94758366916, -165478.3684585534, -184102.89247070462, 0.016, 0.058, 0.99, 192.0, 0.0, 0.0, 0.0, 0.0, 0.0, 0.0, 0.0, 0.0, 0.0, 1.738881429027628E9, 0.0, 2025-02-06 17:37:09.027
63.0, -113884.7308021463, -133413.02524960344, -183597.85480473697, -183598.4359500928, -184609.11477912843, -134714.38851528033, -165665.0055247552, -184031.45629542545, 0.016, 0.058, 0.99, 192.0, 0.0, 0.0, 0.0, 0.0, 0.0, 0.0, 0.0, 0.0, 0.0, 1.738881429032647E9, 0.0, 2025-02-06 17:37:09.032
64.0, -113952.65775354598, -133465.86477349576, -183660.9537793343, -183747.63384433198, -184535.68929859274, -134824.40380148933, -165845.42880599844, -183932.52747446627, 0.016, 0.058, 0.99, 192.0, 0.0, 0.0, 0.0, 0.0, 0.0, 0.0, 0.0, 0.0, 0.0, 1.738881429035648E9, 0.0, 2025-02-06 17:37:09.035
65.0, -114019.84709737863, -133519.8665880998, -183661.6466834124, -183904.05135203022, -184460.47567850063, -134931.31219521907, -166020.2865028723, -183683.32787553404, 0.016, 0.058, 0.99, 192.0, 0.0, 0.0, 0.0, 0.0, 0.0, 0.0, 0.0, 0.0, 0.0, 1.738881429039672E9, 0.0, 2025-02-06 17:37:09.039
66.0, -114077.73811551787, -133567.29698983397, -183575.59246725947, -184053.58452243623, -184379.0706251944, -135030.0174987337, -166177.93335651557, -183659.16563977787, 0.016, 0.058, 0.99, 192.0, 0.0, 0.0, 0.0, 0.0, 0.0, 0.0, 0.0, 0.0, 0.0, 1.738881429043677E9, 0.0, 2025-02-06 17:37:09.043
67.0, -114128.3871684536, -133604.98203098561, -183610.3941333764, -184184.2751722664, -184291.96587705208, -135120.81028471116, -166326.46069842108, -183789.65512390796, 0.016, 0.058, 0.99, 192.0, 0.0, 0.0, 0.0, 0.0, 0.0, 0.0, 0.0, 0.0, 0.0, 1.738881429047693E9, 0.0, 2025-02-06 17:37:09.047
68.0, -114183.97595691396, -133646.2433512501, -183635.15986623286, -184323.79476115643, -184208.83973942278, -135216.22988179087, -166477.60319442788, -183925.64313717405, 0.016, 0.058, 0.99, 192.0, 0.0, 0.0, 0.0, 0.0, 0.0, 0.0, 0.0, 0.0, 0.0, 1.73888142905172E9, 0.0, 2025-02-06 17:37:09.051
69.0, -114241.24112620845, -133688.86812792637, -183553.6207024599, -184467.00238788157, -184018.3358214302, -135312.56590039324, -166629.14802183487, -184065.22978129744, 0.012, 0.058, 0.988, 192.0, 0.0, 96.0, 1.0, 208.0, 30.0, 224.0, 0.0, 0.0, 0.0, 1.738881429055748E9, 0.0, 2025-02-06 17:37:09.055
70.0, -114289.49854248746, -133720.7640672641, -183590.79165348908, -184639.9825382212, -183720.2082538853, -135386.48311930694, -166773.04855263812, -184327.43809550264, 0.012, 0.058, 0.988, 192.0, 0.0, 0.0, 0.0, 0.0, 0.0, 0.0, 0.0, 0.0, 0.0, 1.738881429059745E9, 0.0, 2025-02-06 17:37:09.059
71.0, -114353.55864209637, -133767.54626840906, -183621.61470909294, -185561.85788653587, -183775.21589698983, -135465.25066676745, -166941.87127850906, -184507.92843197924, 0.012, 0.058, 0.988, 192.0, 0.0, 0.0, 0.0, 0.0, 0.0, 0.0, 0.0, 0.0, 0.0, 1.738881429063862E9, 0.0, 2025-02-06 17:37:09.063
72.0, -114435.94717215863, -133834.17681863034, -183554.85004840494, -186204.55994660378, -183904.1631107525, -135562.25723770348, -167134.74448141392, -184455.13361157582, 0.012, 0.058, 0.988, 192.0, 0.0, 0.0, 0.0, 0.0, 0.0, 0.0, 0.0, 0.0, 0.0, 1.738881429066843E9, 0.0, 2025-02-06 17:37:09.066
73.0, -114511.16079225074, -133895.8005780936, -183566.65176947735, -186150.66989072203, -184028.192940735, -135654.79345974844, -167322.7897075164, -184384.23387816356, 0.012, 0.058, 0.988, 192.0, 0.0, 0.0, 0.0, 0.0, 0.0, 0.0, 0.0, 0.0, 0.0, 1.738881429070849E9, 0.0, 2025-02-06 17:37:09.070
74.0, -114589.61541528886, -133959.77127072468, -183623.4028486494, -186080.88774453258, -184152.60275037322, -135750.21305682816, -167513.5841981869, -184315.4128569857, 0.012, 0.058, 0.988, 192.0, 0.0, 0.0, 0.0, 0.0, 0.0, 0.0, 0.0, 0.0, 0.0, 1.738881429075842E9, 0.0, 2025-02-06 17:37:09.075
75.0, -114675.42376225279, -134030.46983843684, -183565.13185085438, -186015.9559268899, -184283.2486967145, -135850.34887198792, -167709.20666565976, -184252.40328936616, 0.012, 0.058, 0.988, 192.0, 0.0, 0.0, 0.0, 0.0, 0.0, 0.0, 0.0, 0.0, 0.0, 1.738881429079826E9, 0.0, 2025-02-06 17:37:09.079
76.0, -114757.09703649247, -134097.21214738037, -183524.2728619901, -185948.87834177952, -184435.2852624995, -135946.93075977932, -167900.02350807472, -184185.59392518926, 0.012, 0.058, 0.988, 192.0, 0.0, 0.0, 0.0, 0.0, 0.0, 0.0, 0.0, 0.0, 0.0, 1.738881429083856E9, 0.0, 2025-02-06 17:37:09.083
77.0, -114838.47973805426, -134165.27320924678, -183608.80715952007, -185881.80075666914, -184792.6226011065, -136052.69921454182, -168092.2708621348, -184119.52216857937, 0.012, 0.058, 0.988, 192.0, 0.0, 0.0, 0.0, 0.0, 0.0, 0.0, 0.0, 0.0, 0.0, 1.738881429087898E9, 0.0, 2025-02-06 17:37:09.087
78.0, -114934.45812874535, -134247.97466373144, -183594.54674655758, -185827.64247985394, -184945.41912620296, -136186.87673650702, -168300.61147220273, -184066.77205166486, 0.012, 0.058, 0.988, 192.0, 0.0, 0.0, 0.0, 0.0, 0.0, 0.0, 0.0, 0.0, 0.0, 1.738881429091887E9, 0.0, 2025-02-06 17:37:09.091
79.0, -115033.11872877106, -134333.1124583617, -183538.80149588603, -185775.6970257398, -184900.06743670316, -136324.9658137519, -168511.9248642832, -184016.5253301293, 0.012, 0.062, 0.988, 192.0, 0.0, 96.0, 1.0, 240.0, 30.0, 224.0, 0.0, 0.0, 0.0, 1.738881429094903E9, 0.0, 2025-02-06 17:37:09.094
80.0, -115125.4761368604, -134412.4835029225, -183522.97646081168, -185718.94594656778, -184847.31731978862, -136455.4105943931, -168716.1751051158, -183961.674149236, 0.012, 0.062, 0.988, 192.0, 0.0, 0.0, 0.0, 0.0, 0.0, 0.0, 0.0, 0.0, 0.0, 1.738881429098931E9, 0.0, 2025-02-06 17:37:09.098
81.0, -115213.67612048103, -134488.16650964814, -183605.29793564058, -185658.30566386052, -184791.3261999281, -136581.65324707667, -168917.36315695802, -183902.82200608516, 0.012, 0.062, 0.988, 192.0, 0.0, 0.0, 0.0, 0.0, 0.0, 0.0, 0.0, 0.0, 0.0, 1.738881429103946E9, 0.0, 2025-02-06 17:37:09.103
82.0, -115311.15207805063, -134571.53851646645, -183576.41948180433, -185604.48266321214, -184743.00172841572, -136716.94835626465, -169127.84953449364, -183836.61613900855, 0.012, 0.062, 0.988, 192.0, 0.0, 0.0, 0.0, 0.0, 0.0, 0.0, 0.0, 0.0, 0.0, 1.738881429107974E9, 0.0, 2025-02-06 17:37:09.107
83.0, -115405.00705301846, -134651.62481684983, -183514.6169083854, -185547.7986392735, -184691.12332953495, -136848.82364855096, -169329.23875203595, -183617.1443602019, 0.012, 0.062, 0.988, 192.0, 0.0, 0.0, 0.0, 0.0, 0.0, 0.0, 0.0, 0.0, 0.0, 1.738881429111989E9, 0.0, 2025-02-06 17:37:09.111
84.0, -115481.04768765542, -134713.89677690231, -183504.06688500248, -185477.4800512171, -184624.76100024712, -136962.34815863945, -169503.2470826205, -183572.99966490266, 0.012, 0.062, 0.988, 192.0, 0.0, 0.0, 0.0, 0.0, 0.0, 0.0, 0.0, 0.0, 0.0, 1.73888142911499E9, 0.0, 2025-02-06 17:37:09.114
85.0, -115554.38376121328, -134772.92773400876, -183587.9306301988, -185404.34514335933, -184556.02938604707, -137071.71524425928, -169671.46631139115, -183720.54353005215, 0.012, 0.062, 0.988, 192.0, 0.0, 0.0, 0.0, 0.0, 0.0, 0.0, 0.0, 0.0, 0.0, 1.738881429119024E9, 0.0, 2025-02-06 17:37:09.119
86.0, -115634.58182031893, -134838.66421445183, -183541.03667033158, -185337.37931697123, -184492.1928038827, -137187.85490844905, -169848.42507224384, -183877.8551075286, 0.012, 0.062, 0.988, 192.0, 0.0, 0.0, 0.0, 0.0, 0.0, 0.0, 0.0, 0.0, 0.0, 1.738881429123039E9, 0.0, 2025-02-06 17:37:09.123
87.0, -115713.63994045735, -134903.28310767212, -183481.62573356935, -185269.05003417135, -184427.46215194013, -137302.34054354913, -170024.02037668473, -184088.7438164644, 0.012, 0.062, 0.988, 192.0, 0.0, 0.0, 0.0, 0.0, 0.0, 0.0, 0.0, 0.0, 0.0, 1.738881429127043E9, 0.0, 2025-02-06 17:37:09.127
88.0, -115793.81564781853, -134969.28780904863, -183548.18922855728, -185202.0171525499, -184365.07843316538, -137420.7377339289, -170206.2317974844, -184404.99864876256, 0.012, 0.062, 0.988, 192.0, 0.0, 0.0, 0.0, 0.0, 0.0, 0.0, 0.0, 0.0, 0.0, 1.738881429131064E9, 0.0, 2025-02-06 17:37:09.131
89.0, -115887.55886406409, -135049.28470245417, -183552.59252221495, -185146.67423327855, -184314.11645580726, -137553.23887505996, -170410.39263133917, -184428.44562869618, 0.012, 0.062, 0.982, 192.0, 0.0, 96.0, 1.0, 240.0, 30.0, 176.0, 0.0, 0.0, 0.0, 1.738881429136079E9, 0.0, 2025-02-06 17:37:09.136
90.0, -115984.25251057775, -135134.0425174287, -183498.18837621075, -185094.97464835344, -184265.85903952827, -137687.997542381, -170619.44849722963, -184376.18725015965, 0.012, 0.062, 0.982, 192.0, 0.0, 0.0, 0.0, 0.0, 0.0, 0.0, 0.0, 0.0, 0.0, 1.738881429140133E9, 0.0, 2025-02-06 17:37:09.140
91.0, -116076.94519483391, -135215.9169573685, -183456.9941111796, -185039.65408082656, -184215.94759415957, -137820.20811083415, -170825.4645258742, -184321.09020007733, 0.012, 0.062, 0.982, 192.0, 0.0, 0.0, 0.0, 0.0, 0.0, 0.0, 0.0, 0.0, 0.0, 1.738881429143117E9, 0.0, 2025-02-06 17:37:09.143
92.0, -116165.18988194346, -135290.90706001606, -183545.6858331783, -184978.87968765257, -184160.4258609326, -137948.19419958524, -171024.372699782, -184260.53932434792, 0.012, 0.062, 0.982, 192.0, 0.0, 0.0, 0.0, 0.0, 0.0, 0.0, 0.0, 0.0, 0.0, 1.738881429147122E9, 0.0, 2025-02-06 17:37:09.147
93.0, -116262.62113602414, -135372.82620344474, -183555.1853245718, -184926.3083846937, -184112.30255512032, -138085.03157914063, -171232.60155112762, -184208.9738498895, 0.012, 0.062, 0.982, 192.0, 0.0, 0.0, 0.0, 0.0, 0.0, 0.0, 0.0, 0.0, 0.0, 1.738881429151167E9, 0.0, 2025-02-06 17:37:09.151
94.0, -116362.80165467283, -135455.90763758513, -183500.91528903428, -184875.21229686885, -184065.81092665327, -138221.84660695156, -171443.24439087443, -184158.10127950922, 0.012, 0.062, 0.982, 192.0, 0.0, 0.0, 0.0, 0.0, 0.0, 0.0, 0.0, 0.0, 0.0, 1.738881429155163E9, 0.0, 2025-02-06 17:37:09.155
95.0, -116459.49530118649, -135537.04446995788, -183452.16613437727, -184821.3222409871, -183944.7091751944, -138354.39245157153, -171650.48976546404, -184104.07711316075, 0.012, 0.062, 0.982, 192.0, 0.0, 0.0, 0.0, 0.0, 0.0, 0.0, 0.0, 0.0, 0.0, 1.738881429159189E9, 0.0, 2025-02-06 17:37:09.159
96.0, -116542.0626452044, -135603.78677890144, -183515.60038514144, -184754.98226344376, -183649.37557570645, -138462.01610112382, -171843.1618026688, -184037.46891468394, 0.012, 0.062, 0.982, 192.0, 0.0, 0.0, 0.0, 0.0, 0.0, 0.0, 0.0, 0.0, 0.0, 1.738881429164198E9, 0.0, 2025-02-06 17:37:09.164
97.0, -116622.70773919913, -135669.74677678905, -183517.54498690905, -184688.75404462268, -183685.8536226575, -138557.0557185478, -172035.69972940683, -183971.3748063296, 0.012, 0.062, 0.982, 192.0, 0.0, 0.0, 0.0, 0.0, 0.0, 0.0, 0.0, 0.0, 0.0, 1.738881429168237E9, 0.0, 2025-02-06 17:37:09.168
98.0, -116706.45972567318, -135737.91959737774, -183449.68509074274, -184625.54331130307, -183817.70656319938, -138654.9340075176, -172231.52336257976, -183909.01343929928, 0.012, 0.062, 0.982, 192.0, 0.0, 0.0, 0.0, 0.0, 0.0, 0.0, 0.0, 0.0, 0.0, 1.738881429171251E9, 0.0, 2025-02-06 17:37:09.171
99.0, -116784.37790684437, -135800.1021504524, -183454.557771034, -184556.2082000027, -183943.39042227156, -138747.13495339573, -172419.0544985598, -183839.65597625446, 0.014, 0.066, 0.986, 192.0, 0.0, 112.0, 2.0, 16.0, 30.0, 208.0, 0.0, 0.0, 0.0, 1.73888142917526E9, 0.0, 2025-02-06 17:37:09.175
100.0, -116862.54195720458, -135863.64815993884, -183519.80251309904, -184487.1413096358, -184067.17438306505, -138838.73240217357, -172606.36211709527, -183739.4754576058, 0.014, 0.066, 0.986, 192.0, 0.0, 0.0, 0.0, 0.0, 0.0, 0.0, 0.0, 0.0, 0.0, 1.738881429179282E9, 0.0, 2025-02-06 17:37:09.179
101.0, -116940.86246977598, -135927.77531478112, -183459.4975065586, -184418.54380590247, -184192.25474503695, -138930.70983060717, -172788.84175882838, -183496.73551282115, 0.014, 0.066, 0.986, 192.0, 0.0, 0.0, 0.0, 0.0, 0.0, 0.0, 0.0, 0.0, 0.0, 1.738881429183363E9, 0.0, 2025-02-06 17:37:09.183
102.0, -117003.08972633956, -135976.6362281604, -183435.46938126915, -184337.47402876307, -184313.17768254015, -139007.19750013322, -172946.48861247167, -183502.97164952417, 0.014, 0.066, 0.986, 192.0, 0.0, 0.0, 0.0, 0.0, 0.0, 0.0, 0.0, 0.0, 0.0, 1.738881429187352E9, 0.0, 2025-02-06 17:37:09.187
103.0, -117066.0322387257, -136024.78188571715, -183501.13880647885, -184257.16421093515, -184624.53748280258, -139088.9825330952, -173103.5096172702, -183643.40765993687, 0.014, 0.066, 0.986, 192.0, 0.0, 0.0, 0.0, 0.0, 0.0, 0.0, 0.0, 0.0, 0.0, 1.738881429191354E9, 0.0, 2025-02-06 17:37:09.191
104.0, -117144.44215827492, -136089.02079928172, -183449.03689015354, -184189.72899791348, -184824.3173747441, -139199.89188908244, -173275.1933664314, -183797.56764144512, 0.014, 0.066, 0.986, 192.0, 0.0, 0.0, 0.0, 0.0, 0.0, 0.0, 0.0, 0.0, 0.0, 1.738881429196361E9, 0.0, 2025-02-06 17:37:09.196
105.0, -117218.89581905554, -136151.27040758973, -183399.3489622294, -184120.10331393522, -184766.04637694912, -139311.42709391442, -173444.440775447, -183986.52928907028, 0.014, 0.066, 0.986, 192.0, 0.0, 0.0, 0.0, 0.0, 0.0, 0.0, 0.0, 0.0, 0.0, 1.738881429199382E9, 0.0, 2025-02-06 17:37:09.199
106.0, -117296.3893170821, -136215.66578336546, -183484.6208673264, -184052.08695555772, -184700.95809709528, -139426.918557515, -173623.81352470085, -184310.22725227205, 0.014, 0.066, 0.986, 192.0, 0.0, 0.0, 0.0, 0.0, 0.0, 0.0, 0.0, 0.0, 0.0, 1.738881429202407E9, 0.0, 2025-02-06 17:37:09.202
107.0, -117392.74768742893, -136296.26617387132, -183479.63642831284, -183998.46512060944, -184650.86783777093, -139561.76663181384, -173829.78484985649, -184369.5711338009, 0.014, 0.066, 0.986, 192.0, 0.0, 0.0, 0.0, 0.0, 0.0, 0.0, 0.0, 0.0, 0.0, 1.738881429207408E9, 0.0, 2025-02-06 17:37:09.207
108.0, -117492.32470897732, -136380.21932604545, -183425.20993056416, -183947.68195720698, -184603.52684301458, -139697.48642414648, -174039.93595122528, -184318.45269423162, 0.014, 0.066, 0.986, 192.0, 0.0, 0.0, 0.0, 0.0, 0.0, 0.0, 0.0, 0.0, 0.0, 1.738881429211459E9, 0.0, 2025-02-06 17:37:09.211
